주파수 (Hz)	레벨 (dB)
43.066406	-64.967232
86.132813	-68.322670
129.199219	-68.515907
172.265625	-71.740677
215.332031	-73.087402
258.398438	-72.545715
301.464844	-70.753883
344.531250	-65.172478
387.597656	-58.700466
430.664063	-56.738197
473.730469	-54.041500
516.796875	-52.875690
559.863281	-54.687698
602.929688	-53.807621
645.996094	-55.104584
689.062500	-56.514431
732.128906	-51.454903
775.195313	-48.205135
818.261719	-43.817566
861.328125	-39.541126
904.394531	-36.999550
947.460938	-34.052029
990.527344	-28.447784
1033.593750	-27.895088
1076.660156	-26.330353
1119.726563	-23.866346
1162.792969	-26.537123
1205.859375	-29.392904
1248.925781	-32.350746
1291.992188	-36.157879
1335.058594	-35.685253
1378.125000	-35.379494
1421.191406	-38.728893
1464.257813	-36.943001
1507.324219	-34.624710
1550.390625	-35.381947
1593.457031	-32.981159
1636.523438	-29.340879
1679.589844	-29.507788
1722.656250	-29.715097
1765.722656	-25.190357
1808.789063	-23.848793
1851.855469	-27.267040
1894.921875	-26.156630
1937.988281	-26.339611
1981.054688	-28.104151
2024.121094	-28.850969
2067.187500	-28.524769
2110.253906	-28.222689
2153.320313	-32.387791
2196.386719	-33.316505
2239.453125	-27.843063
2282.519531	-25.353458
2325.585938	-23.040073
2368.652344	-20.504328
2411.718750	-26.183001
2454.785156	-28.694443
2497.851563	-27.966753
2540.917969	-21.600815
2583.984375	-17.069511
2627.050781	-20.704992
2670.117188	-32.548752
2713.183594	-37.748112
2756.250000	-35.691547
2799.316406	-37.860809
2842.382813	-41.139381
2885.449219	-42.220428
2928.515625	-42.099903
2971.582031	-40.748688
3014.648438	-40.444481
3057.714844	-35.295006
3100.781250	-34.427025
3143.847656	-38.104801
3186.914063	-44.230938
3229.980469	-45.074802
3273.046875	-43.298038
3316.113281	-42.366592
3359.179688	-41.104969
3402.246094	-41.048321
3445.312500	-42.832802
3488.378906	-41.826019
3531.445313	-38.846001
3574.511719	-37.721008
3617.578125	-40.398434
3660.644531	-42.425598
3703.710938	-43.421238
3746.777344	-41.381889
3789.843750	-40.962917
3832.910156	-43.589035
3875.976563	-46.653648
3919.042969	-45.885750
3962.109375	-44.447849
4005.175781	-43.454742
4048.242188	-42.248081
4091.308594	-37.431828
4134.375000	-38.410725
4177.441406	-39.734921
4220.507813	-42.883060
4263.574219	-47.879726
4306.640625	-52.513111
4349.707031	-52.692993
4392.773438	-49.705822
4435.839844	-45.291836
4478.906250	-44.361244
4521.972656	-44.431671
4565.039063	-42.668316
4608.105469	-43.339508
4651.171875	-46.441536
4694.238281	-43.183083
4737.304688	-44.756435
4780.371094	-47.629986
4823.437500	-44.360565
4866.503906	-41.013580
4909.570313	-36.387173
4952.636719	-31.720793
4995.703125	-28.780060
5038.769531	-33.232841
5081.835938	-41.194469
5124.902344	-42.431492
5167.968750	-36.546799
5211.035156	-33.638611
5254.101563	-36.326664
5297.167969	-39.473598
5340.234375	-46.674889
5383.300781	-46.947712
5426.367188	-48.732330
5469.433594	-49.494102
5512.500000	-52.345375
5555.566406	-53.788670
5598.632813	-54.557198
5641.699219	-54.828362
5684.765625	-54.282352
5727.832031	-54.216206
5770.898438	-54.616417
5813.964844	-55.014889
5857.031250	-55.243919
5900.097656	-52.415600
5943.164063	-50.611473
5986.230469	-52.294579
6029.296875	-52.644505
6072.363281	-53.526661
6115.429688	-53.275223
6158.496094	-53.476952
6201.562500	-51.459141
6244.628906	-47.218853
6287.695313	-49.170364
6330.761719	-47.790722
6373.828125	-49.154720
6416.894531	-51.995850
6459.960938	-53.367107
6503.027344	-55.576130
6546.093750	-58.094967
6589.160156	-59.897385
6632.226563	-59.371651
6675.292969	-57.128902
6718.359375	-55.530754
6761.425781	-56.494884
6804.492188	-55.866173
6847.558594	-55.909771
6890.625000	-54.193352
6933.691406	-53.384144
6976.757813	-54.948044
7019.824219	-52.981411
7062.890625	-50.002781
7105.957031	-48.241287
7149.023438	-49.347218
7192.089844	-49.970680
7235.156250	-51.400200
7278.222656	-52.211090
7321.289063	-53.731777
7364.355469	-56.082771
7407.421875	-55.652946
7450.488281	-52.189022
7493.554688	-50.068920
7536.621094	-52.215557
7579.687500	-52.278641
7622.753906	-51.174629
7665.820313	-50.656590
7708.886719	-50.257034
7751.953125	-51.124035
7795.019531	-50.419052
7838.085938	-53.962856
7881.152344	-62.173393
7924.218750	-64.092590
7967.285156	-64.554077
8010.351563	-63.705666
8053.417969	-62.810341
8096.484375	-63.320053
8139.550781	-63.662922
8182.617188	-56.611790
8225.683594	-54.216499
8268.750000	-55.851048
8311.816406	-54.897881
8354.882813	-59.196934
8397.949219	-64.656731
8441.015625	-66.014244
8484.082031	-66.596947
8527.148438	-69.253525
8570.214844	-67.323494
8613.281250	-65.292824
8656.347656	-65.494019
8699.414063	-66.010963
8742.480469	-66.612892
8785.546875	-68.460426
8828.613281	-70.704086
8871.679688	-70.663406
8914.746094	-70.617088
8957.812500	-70.505898
9000.878906	-67.954163
9043.945313	-67.685478
9087.011719	-67.540451
9130.078125	-67.348106
9173.144531	-68.097549
9216.210938	-68.627205
9259.277344	-68.392624
9302.343750	-68.446014
9345.410156	-67.392006
9388.476563	-64.950165
9431.542969	-63.360744
9474.609375	-61.959026
9517.675781	-62.753593
9560.742188	-66.376373
9603.808594	-67.237419
9646.875000	-66.229095
9689.941406	-64.836403
9733.007813	-64.150658
9776.074219	-62.038971
9819.140625	-63.455509
9862.207031	-62.733593
9905.273438	-64.920273
9948.339844	-65.459579
9991.406250	-64.520386
10034.472656	-65.752785
10077.539063	-68.306686
10120.605469	-66.843018
10163.671875	-64.741943
10206.738281	-64.383377
10249.804688	-63.196995
10292.871094	-61.194328
10335.937500	-60.507023
10379.003906	-57.698231
10422.070313	-58.699951
10465.136719	-64.340698
10508.203125	-66.577072
10551.269531	-65.239746
10594.335938	-65.642914
10637.402344	-64.455147
10680.468750	-65.297127
10723.535156	-68.177048
10766.601563	-72.456528
10809.667969	-72.725365
10852.734375	-71.850952
10895.800781	-70.609070
10938.867188	-70.235588
10981.933594	-70.128540
11025.000000	-70.121910
11068.066406	-70.470039
11111.132813	-71.050247
11154.199219	-71.658348
11197.265625	-70.433228
11240.332031	-69.227669
11283.398438	-67.663918
11326.464844	-66.434891
11369.531250	-66.322121
11412.597656	-66.538101
11455.664063	-66.599174
11498.730469	-67.294212
11541.796875	-69.087738
11584.863281	-68.888817
11627.929688	-68.577034
11670.996094	-67.735374
11714.062500	-67.142075
11757.128906	-65.871490
11800.195313	-64.262375
11843.261719	-64.449623
11886.328125	-65.808350
11929.394531	-68.775604
11972.460938	-68.276711
12015.527344	-66.468117
12058.593750	-65.326500
12101.660156	-65.298546
12144.726563	-65.755455
12187.792969	-64.720406
12230.859375	-63.911510
12273.925781	-64.562080
12316.992188	-68.097107
12360.058594	-68.555359
12403.125000	-68.146584
12446.191406	-66.557266
12489.257813	-65.360222
12532.324219	-66.620796
12575.390625	-67.223999
12618.457031	-67.681587
12661.523438	-68.995094
12704.589844	-69.532646
12747.656250	-68.829819
12790.722656	-68.564156
12833.789063	-67.366531
12876.855469	-67.358742
12919.921875	-68.106834
12962.988281	-68.203072
13006.054688	-68.825417
13049.121094	-68.740791
13092.187500	-71.447433
13135.253906	-73.836166
13178.320313	-74.266434
13221.386719	-73.478287
13264.453125	-72.174690
13307.519531	-70.925278
13350.585938	-70.076576
13393.652344	-71.274887
13436.718750	-73.993042
13479.785156	-74.654617
13522.851563	-73.237297
13565.917969	-73.229507
13608.984375	-74.113342
13652.050781	-73.051666
13695.117188	-72.921417
13738.183594	-73.813667
13781.250000	-75.225578
13824.316406	-76.496147
13867.382813	-76.225754
13910.449219	-76.148888
13953.515625	-74.953629
13996.582031	-73.653740
14039.648438	-72.716919
14082.714844	-71.550278
14125.781250	-72.424896
14168.847656	-70.088150
14211.914063	-70.310661
14254.980469	-70.883545
14298.046875	-73.627205
14341.113281	-73.434250
14384.179688	-73.918732
14427.246094	-73.999718
14470.312500	-74.973244
14513.378906	-75.043968
14556.445313	-73.345802
14599.511719	-73.228783
14642.578125	-73.370041
14685.644531	-72.512634
14728.710938	-72.399109
14771.777344	-72.883270
14814.843750	-73.035133
14857.910156	-72.790352
14900.976563	-73.117599
14944.042969	-72.239044
14987.109375	-73.242157
15030.175781	-82.141350
15073.242188	-100.804543
15116.308594	-112.428818
15159.375000	-114.829605
15202.441406	-117.185745
15245.507813	-117.395813
15288.574219	-116.756859
15331.640625	-117.307587
15374.707031	-117.381012
15417.773438	-117.459709
15460.839844	-117.577339
15503.906250	-117.410355
15546.972656	-117.423256
15590.039063	-117.889236
15633.105469	-117.342781
15676.171875	-117.155411
15719.238281	-117.457664
15762.304688	-117.819725
15805.371094	-117.855888
15848.437500	-117.534134
15891.503906	-117.532341
15934.570313	-117.802544
15977.636719	-117.637306
16020.703125	-117.102356
16063.769531	-116.906166
16106.835938	-117.243202
16149.902344	-117.587875
16192.968750	-117.135719
16236.035156	-117.326424
16279.101563	-117.253136
16322.167969	-117.711212
16365.234375	-117.327950
16408.300781	-117.076050
16451.367188	-117.134651
16494.433594	-116.986603
16537.500000	-116.948471
16580.566406	-117.491470
16623.632813	-117.094353
16666.699219	-117.272339
16709.765625	-117.897293
16752.832031	-117.512955
16795.898438	-117.607582
16838.964844	-117.137505
16882.031250	-116.811661
16925.097656	-117.231087
16968.164063	-117.335686
17011.230469	-117.922272
17054.296875	-117.746269
17097.363281	-117.408478
17140.429688	-117.398750
17183.496094	-117.121712
17226.562500	-117.050026
17269.628906	-117.002472
17312.695313	-116.855103
17355.761719	-116.857277
17398.828125	-116.639587
17441.894531	-117.081543
17484.960938	-117.652550
17528.027344	-117.657784
17571.093750	-117.332382
17614.160156	-117.316597
17657.226563	-117.299278
17700.292969	-117.273705
17743.359375	-117.079132
17786.425781	-117.372223
17829.492188	-117.888855
17872.558594	-117.922768
17915.625000	-117.310211
17958.691406	-117.064682
18001.757813	-117.092430
18044.824219	-117.265045
18087.890625	-117.455475
18130.957031	-117.889320
18174.023438	-117.644585
18217.089844	-117.519814
18260.156250	-117.244377
18303.222656	-117.620140
18346.289063	-117.948708
18389.355469	-117.639587
18432.421875	-117.065483
18475.488281	-117.027718
18518.554688	-116.972893
18561.621094	-117.114876
18604.687500	-117.414276
18647.753906	-117.490410
18690.820313	-117.147835
18733.886719	-117.606895
18776.953125	-117.799599
18820.019531	-117.128624
18863.085938	-116.609421
18906.152344	-116.783562
18949.218750	-116.960693
18992.285156	-117.291115
19035.351563	-117.655464
19078.417969	-117.326401
19121.484375	-117.379288
19164.550781	-117.401146
19207.617188	-117.548798
19250.683594	-117.577660
19293.750000	-117.059082
19336.816406	-117.632339
19379.882813	-117.645493
19422.949219	-117.564438
19466.015625	-117.609039
19509.082031	-117.493988
19552.148438	-117.387611
19595.214844	-117.855820
19638.281250	-117.721695
19681.347656	-117.167725
19724.414063	-116.829292
19767.480469	-117.086571
19810.546875	-117.556412
19853.613281	-117.304543
19896.679688	-117.716057
19939.746094	-117.736702
19982.812500	-117.554520
20025.878906	-117.230240
20068.945313	-117.381706
20112.011719	-117.557907
20155.078125	-117.496490
20198.144531	-117.439911
20241.210938	-117.267212
20284.277344	-117.293831
20327.343750	-117.579147
20370.410156	-117.434151
20413.476563	-116.981354
20456.542969	-116.919739
20499.609375	-117.654518
20542.675781	-117.225990
20585.742188	-116.678986
20628.808594	-117.092140
20671.875000	-117.584259
20714.941406	-117.465919
20758.007813	-117.466255
20801.074219	-117.349113
20844.140625	-117.227081
20887.207031	-117.352127
20930.273438	-117.128128
20973.339844	-116.573044
21016.406250	-116.980820
21059.472656	-117.409386
21102.539063	-116.994347
21145.605469	-117.345177
21188.671875	-117.831039
21231.738281	-117.477440
21274.804688	-117.442101
21317.871094	-117.716599
21360.937500	-118.007164
21404.003906	-117.868782
21447.070313	-117.393295
21490.136719	-117.139862
21533.203125	-117.788826
21576.269531	-117.870720
21619.335938	-118.215508
21662.402344	-118.480553
21705.468750	-117.762222
21748.535156	-117.550591
21791.601563	-117.735481
21834.667969	-117.606766
21877.734375	-117.387917
21920.800781	-116.919243
21963.867188	-117.412758
22006.933594	-117.936287
