주파수 (Hz)	레벨 (dB)
43.066406	-71.092346
86.132813	-71.950882
129.199219	-72.483826
172.265625	-71.808426
215.332031	-69.071709
258.398438	-70.940216
301.464844	-74.652367
344.531250	-71.817596
387.597656	-66.520683
430.664063	-59.176205
473.730469	-60.001427
516.796875	-68.545685
559.863281	-60.184647
602.929688	-60.796310
645.996094	-69.783218
689.062500	-71.406342
732.128906	-66.573853
775.195313	-63.043056
818.261719	-63.726997
861.328125	-67.413704
904.394531	-63.593239
947.460938	-62.891346
990.527344	-60.654919
1033.593750	-56.491611
1076.660156	-51.371838
1119.726563	-44.343910
1162.792969	-40.796158
1205.859375	-39.403618
1248.925781	-39.926189
1291.992188	-43.320084
1335.058594	-45.791145
1378.125000	-46.962360
1421.191406	-45.831036
1464.257813	-49.807201
1507.324219	-50.108173
1550.390625	-48.282387
1593.457031	-49.888329
1636.523438	-49.951580
1679.589844	-49.653595
1722.656250	-46.519463
1765.722656	-45.611816
1808.789063	-47.878956
1851.855469	-48.035877
1894.921875	-44.475754
1937.988281	-45.539608
1981.054688	-44.571770
2024.121094	-38.486992
2067.187500	-36.799892
2110.253906	-36.895039
2153.320313	-38.385254
2196.386719	-40.053623
2239.453125	-41.366390
2282.519531	-38.431370
2325.585938	-34.206936
2368.652344	-32.343735
2411.718750	-34.628445
2454.785156	-32.914436
2497.851563	-30.283293
2540.917969	-32.315426
2583.984375	-36.534088
2627.050781	-34.013500
2670.117188	-31.661451
2713.183594	-27.748177
2756.250000	-28.501507
2799.316406	-29.761812
2842.382813	-29.022886
2885.449219	-29.848261
2928.515625	-28.052963
2971.582031	-25.124613
3014.648438	-23.432398
3057.714844	-24.509157
3100.781250	-22.165947
3143.847656	-19.253336
3186.914063	-20.686468
3229.980469	-23.900076
3273.046875	-26.332388
3316.113281	-29.609283
3359.179688	-31.473776
3402.246094	-35.997261
3445.312500	-40.834862
3488.378906	-44.523479
3531.445313	-43.114117
3574.511719	-42.999664
3617.578125	-46.055988
3660.644531	-49.684052
3703.710938	-50.982143
3746.777344	-51.307545
3789.843750	-52.492149
3832.910156	-57.160301
3875.976563	-55.840935
3919.042969	-55.193668
3962.109375	-56.980942
4005.175781	-57.159424
4048.242188	-57.364849
4091.308594	-55.997116
4134.375000	-56.548908
4177.441406	-58.061020
4220.507813	-57.032227
4263.574219	-57.704597
4306.640625	-58.879726
4349.707031	-56.977959
4392.773438	-55.992512
4435.839844	-56.606625
4478.906250	-57.750931
4521.972656	-57.585487
4565.039063	-53.362194
4608.105469	-50.952694
4651.171875	-54.072769
4694.238281	-56.280560
4737.304688	-53.313118
4780.371094	-50.874363
4823.437500	-53.536884
4866.503906	-56.013691
4909.570313	-54.585350
4952.636719	-52.249741
4995.703125	-51.165283
5038.769531	-51.265533
5081.835938	-50.891987
5124.902344	-50.851868
5167.968750	-50.806938
5211.035156	-49.338551
5254.101563	-48.558186
5297.167969	-47.864395
5340.234375	-48.303638
5383.300781	-49.242298
5426.367188	-48.356956
5469.433594	-47.017525
5512.500000	-47.388367
5555.566406	-48.746319
5598.632813	-48.684586
5641.699219	-46.348335
5684.765625	-47.091106
5727.832031	-48.150707
5770.898438	-47.161888
5813.964844	-47.158459
5857.031250	-49.889381
5900.097656	-52.020126
5943.164063	-51.900051
5986.230469	-49.351200
6029.296875	-48.187988
6072.363281	-48.689499
6115.429688	-48.338612
6158.496094	-45.169201
6201.562500	-44.348866
6244.628906	-44.564079
6287.695313	-44.452076
6330.761719	-42.715637
6373.828125	-43.578453
6416.894531	-44.251163
6459.960938	-46.682743
6503.027344	-50.303520
6546.093750	-50.881924
6589.160156	-51.345619
6632.226563	-54.522194
6675.292969	-59.867020
6718.359375	-60.007324
6761.425781	-58.730274
6804.492188	-59.608776
6847.558594	-62.290901
6890.625000	-62.301884
6933.691406	-61.425056
6976.757813	-61.742912
7019.824219	-64.882782
7062.890625	-66.200127
7105.957031	-65.955925
7149.023438	-66.887329
7192.089844	-66.739204
7235.156250	-68.891747
7278.222656	-68.985588
7321.289063	-68.046005
7364.355469	-67.159149
7407.421875	-69.119202
7450.488281	-71.919266
7493.554688	-72.379761
7536.621094	-71.369873
7579.687500	-71.670532
7622.753906	-70.473129
7665.820313	-70.475334
7708.886719	-70.794823
7751.953125	-69.613075
7795.019531	-70.866447
7838.085938	-75.184280
7881.152344	-76.039108
7924.218750	-75.198280
7967.285156	-76.644173
8010.351563	-75.781021
8053.417969	-76.396156
8096.484375	-74.453308
8139.550781	-73.942268
8182.617188	-76.368019
8225.683594	-72.385788
8268.750000	-68.063026
8311.816406	-67.843369
8354.882813	-67.785507
8397.949219	-66.150002
8441.015625	-65.886139
8484.082031	-64.660225
8527.148438	-64.531311
8570.214844	-64.950424
8613.281250	-64.196953
8656.347656	-62.831757
8699.414063	-63.527691
8742.480469	-62.439445
8785.546875	-61.536854
8828.613281	-62.821846
8871.679688	-63.438038
8914.746094	-62.092564
8957.812500	-61.163673
9000.878906	-62.604572
9043.945313	-63.086056
9087.011719	-62.802464
9130.078125	-62.935020
9173.144531	-62.320904
9216.210938	-60.457050
9259.277344	-60.440720
9302.343750	-60.278610
9345.410156	-59.874451
9388.476563	-57.966919
9431.542969	-58.414001
9474.609375	-57.760109
9517.675781	-55.012596
9560.742188	-54.699188
9603.808594	-54.937656
9646.875000	-55.022976
9689.941406	-56.340218
9733.007813	-57.312965
9776.074219	-59.807869
9819.140625	-61.846970
9862.207031	-62.582363
9905.273438	-62.873596
9948.339844	-62.326241
9991.406250	-63.882469
10034.472656	-64.835968
10077.539063	-67.074425
10120.605469	-68.596306
10163.671875	-68.695663
10206.738281	-69.111740
10249.804688	-72.302498
10292.871094	-71.718636
10335.937500	-73.405144
10379.003906	-76.450653
10422.070313	-78.572502
10465.136719	-77.964928
10508.203125	-77.967529
10551.269531	-77.584175
10594.335938	-75.898880
10637.402344	-77.251427
10680.468750	-79.869225
10723.535156	-83.254143
10766.601563	-84.411598
10809.667969	-84.733917
10852.734375	-82.980835
10895.800781	-81.030464
10938.867188	-81.925362
10981.933594	-85.573410
11025.000000	-85.096931
11068.066406	-83.908257
11111.132813	-84.568161
11154.199219	-82.534004
11197.265625	-82.063568
11240.332031	-82.244614
11283.398438	-82.564507
11326.464844	-81.744614
11369.531250	-80.092796
11412.597656	-80.637642
11455.664063	-82.514404
11498.730469	-78.255363
11541.796875	-77.315315
11584.863281	-77.586945
11627.929688	-77.358269
11670.996094	-76.515373
11714.062500	-76.011871
11757.128906	-77.118752
11800.195313	-76.440598
11843.261719	-77.088493
11886.328125	-81.378952
11929.394531	-93.227028
11972.460938	-109.566521
12015.527344	-114.676872
12058.593750	-114.823769
12101.660156	-115.366943
12144.726563	-116.191833
12187.792969	-116.894882
12230.859375	-116.045593
12273.925781	-115.846054
12316.992188	-115.310471
12360.058594	-115.687210
12403.125000	-114.796387
12446.191406	-115.093559
12489.257813	-115.543228
12532.324219	-114.984871
12575.390625	-115.058594
12618.457031	-115.421616
12661.523438	-114.886543
12704.589844	-114.869179
12747.656250	-115.182335
12790.722656	-114.977013
12833.789063	-114.902802
12876.855469	-114.050468
12919.921875	-114.510834
12962.988281	-114.349831
13006.054688	-113.902161
13049.121094	-113.749916
13092.187500	-113.774788
13135.253906	-113.992256
13178.320313	-114.590607
13221.386719	-113.598038
13264.453125	-113.935577
13307.519531	-114.456779
13350.585938	-114.260437
13393.652344	-113.789955
13436.718750	-113.542831
13479.785156	-113.594894
13522.851563	-113.848885
13565.917969	-114.066650
13608.984375	-113.475990
13652.050781	-114.494759
13695.117188	-114.904449
13738.183594	-114.381508
13781.250000	-114.005127
13824.316406	-113.973770
13867.382813	-113.392647
13910.449219	-113.574776
13953.515625	-114.455055
13996.582031	-113.578995
14039.648438	-113.486359
14082.714844	-113.245476
14125.781250	-113.616989
14168.847656	-113.803215
14211.914063	-114.468887
14254.980469	-114.615562
14298.046875	-114.121422
14341.113281	-113.508858
14384.179688	-113.984787
14427.246094	-113.660789
14470.312500	-113.931335
14513.378906	-113.435020
14556.445313	-114.546585
14599.511719	-115.211678
14642.578125	-114.563225
14685.644531	-113.594475
14728.710938	-112.799393
14771.777344	-113.151093
14814.843750	-113.585106
14857.910156	-113.551033
14900.976563	-113.763084
14944.042969	-113.997696
14987.109375	-113.866409
15030.175781	-114.110191
15073.242188	-114.088989
15116.308594	-114.370377
15159.375000	-114.830872
15202.441406	-115.350594
15245.507813	-115.677956
15288.574219	-115.851593
15331.640625	-115.137207
15374.707031	-114.612144
15417.773438	-115.443939
15460.839844	-115.132408
15503.906250	-115.367271
15546.972656	-115.511856
15590.039063	-114.926727
15633.105469	-115.362206
15676.171875	-115.872177
15719.238281	-116.157326
15762.304688	-118.584419
15805.371094	-120.442612
15848.437500	-120.643105
15891.503906	-120.791374
15934.570313	-120.500397
15977.636719	-120.730331
16020.703125	-120.803436
16063.769531	-121.016792
16106.835938	-120.982971
16149.902344	-120.906494
16192.968750	-120.790771
16236.035156	-120.317009
16279.101563	-120.503159
16322.167969	-120.391891
16365.234375	-120.501602
16408.300781	-120.327599
16451.367188	-120.443527
16494.433594	-120.667267
16537.500000	-120.615265
16580.566406	-120.395790
16623.632813	-120.562950
16666.699219	-120.314621
16709.765625	-120.292358
16752.832031	-120.384415
16795.898438	-120.614967
16838.964844	-120.507591
16882.031250	-120.405373
16925.097656	-120.712196
16968.164063	-120.920738
17011.230469	-121.050110
17054.296875	-121.498405
17097.363281	-121.428474
17140.429688	-121.001930
17183.496094	-120.840736
17226.562500	-120.577736
17269.628906	-120.709343
17312.695313	-120.625305
17355.761719	-120.857918
17398.828125	-120.833435
17441.894531	-120.494865
17484.960938	-120.643181
17528.027344	-120.486542
17571.093750	-120.322113
17614.160156	-120.862297
17657.226563	-120.533859
17700.292969	-120.406754
17743.359375	-120.648582
17786.425781	-120.815842
17829.492188	-120.800949
17872.558594	-120.745277
17915.625000	-120.347900
17958.691406	-119.995567
18001.757813	-119.928009
18044.824219	-120.527954
18087.890625	-120.573456
18130.957031	-120.307602
18174.023438	-120.397964
18217.089844	-120.631485
18260.156250	-120.672585
18303.222656	-120.665359
18346.289063	-120.479858
18389.355469	-120.888252
18432.421875	-120.946930
18475.488281	-120.707214
18518.554688	-120.782524
18561.621094	-120.827827
18604.687500	-120.777313
18647.753906	-120.421806
18690.820313	-120.699738
18733.886719	-120.692741
18776.953125	-120.465340
18820.019531	-120.864059
18863.085938	-120.458260
18906.152344	-120.694504
18949.218750	-120.704895
18992.285156	-120.779678
19035.351563	-120.328941
19078.417969	-120.342445
19121.484375	-120.565376
19164.550781	-120.322632
19207.617188	-120.168396
19250.683594	-120.363487
19293.750000	-120.680305
19336.816406	-120.929146
19379.882813	-120.881599
19422.949219	-121.022842
19466.015625	-120.564400
19509.082031	-120.051521
19552.148438	-120.638062
19595.214844	-120.803612
19638.281250	-120.513626
19681.347656	-120.605324
19724.414063	-120.720261
19767.480469	-120.867508
19810.546875	-120.724205
19853.613281	-120.251778
19896.679688	-120.631226
19939.746094	-121.079964
19982.812500	-120.301529
20025.878906	-120.340790
20068.945313	-120.594635
20112.011719	-120.446144
20155.078125	-120.496353
20198.144531	-120.291985
20241.210938	-120.188042
20284.277344	-120.511986
20327.343750	-120.564865
20370.410156	-120.374664
20413.476563	-120.747017
20456.542969	-120.893723
20499.609375	-120.357475
20542.675781	-120.512802
20585.742188	-120.639153
20628.808594	-120.830696
20671.875000	-121.177666
20714.941406	-121.041794
20758.007813	-120.230515
20801.074219	-120.049301
20844.140625	-120.178619
20887.207031	-120.558807
20930.273438	-120.878510
20973.339844	-121.020653
21016.406250	-120.844467
21059.472656	-121.356293
21102.539063	-121.020531
21145.605469	-120.224060
21188.671875	-120.757332
21231.738281	-120.738144
21274.804688	-120.594597
21317.871094	-120.350861
21360.937500	-120.636536
21404.003906	-121.081993
21447.070313	-120.566292
21490.136719	-120.265091
21533.203125	-120.833389
21576.269531	-120.743301
21619.335938	-120.373634
21662.402344	-120.445419
21705.468750	-120.369911
21748.535156	-120.113419
21791.601563	-120.151344
21834.667969	-120.333229
21877.734375	-120.790802
21920.800781	-120.682518
21963.867188	-120.197403
22006.933594	-120.578400
