주파수 (Hz)	레벨 (dB)
43.066406	-62.065464
86.132813	-59.700787
129.199219	-56.092136
172.265625	-53.179119
215.332031	-51.185673
258.398438	-48.374531
301.464844	-45.198570
344.531250	-45.378483
387.597656	-43.587608
430.664063	-42.763691
473.730469	-44.202827
516.796875	-44.695805
559.863281	-43.294655
602.929688	-41.497055
645.996094	-41.889328
689.062500	-42.048691
732.128906	-41.492710
775.195313	-37.237530
818.261719	-32.431023
861.328125	-30.831249
904.394531	-27.887274
947.460938	-23.639236
990.527344	-22.401621
1033.593750	-23.408718
1076.660156	-23.556345
1119.726563	-20.718039
1162.792969	-16.244028
1205.859375	-14.057819
1248.925781	-14.510134
1291.992188	-18.342676
1335.058594	-24.260092
1378.125000	-28.367508
1421.191406	-29.801855
1464.257813	-29.595852
1507.324219	-27.757919
1550.390625	-27.371706
1593.457031	-27.604139
1636.523438	-27.045322
1679.589844	-28.632605
1722.656250	-29.493082
1765.722656	-27.522301
1808.789063	-25.838533
1851.855469	-22.933464
1894.921875	-19.254036
1937.988281	-17.879473
1981.054688	-17.446257
2024.121094	-16.612284
2067.187500	-16.658804
2110.253906	-19.025396
2153.320313	-21.866179
2196.386719	-23.048964
2239.453125	-23.355671
2282.519531	-23.972771
2325.585938	-23.851501
2368.652344	-23.735447
2411.718750	-25.136669
2454.785156	-28.010433
2497.851563	-28.752569
2540.917969	-29.510401
2583.984375	-30.385300
2627.050781	-30.632730
2670.117188	-29.958639
2713.183594	-28.945578
2756.250000	-28.368481
2799.316406	-26.679211
2842.382813	-24.874397
2885.449219	-22.695438
2928.515625	-22.874208
2971.582031	-23.958817
3014.648438	-26.826309
3057.714844	-28.234344
3100.781250	-29.217644
3143.847656	-28.437344
3186.914063	-29.427286
3229.980469	-29.975422
3273.046875	-29.618601
3316.113281	-29.642595
3359.179688	-29.581989
3402.246094	-31.461895
3445.312500	-32.770245
3488.378906	-32.038250
3531.445313	-32.257813
3574.511719	-32.898758
3617.578125	-33.543430
3660.644531	-33.481834
3703.710938	-29.639711
3746.777344	-29.252884
3789.843750	-27.767422
3832.910156	-26.159500
3875.976563	-28.477602
3919.042969	-31.456238
3962.109375	-32.013962
4005.175781	-34.788303
4048.242188	-35.773666
4091.308594	-35.438450
4134.375000	-35.161999
4177.441406	-35.655109
4220.507813	-38.143578
4263.574219	-38.971725
4306.640625	-38.648586
4349.707031	-39.939957
4392.773438	-40.014317
4435.839844	-38.293507
4478.906250	-37.979275
4521.972656	-38.647774
4565.039063	-38.232071
4608.105469	-38.180431
4651.171875	-38.618702
4694.238281	-40.454777
4737.304688	-40.292068
4780.371094	-40.250633
4823.437500	-41.762985
4866.503906	-42.375404
4909.570313	-41.634861
4952.636719	-40.760353
4995.703125	-42.233688
5038.769531	-43.062969
5081.835938	-41.642082
5124.902344	-42.058586
5167.968750	-42.516232
5211.035156	-43.041580
5254.101563	-41.933178
5297.167969	-41.835640
5340.234375	-42.010063
5383.300781	-41.568455
5426.367188	-41.696999
5469.433594	-41.994576
5512.500000	-42.838108
5555.566406	-43.081306
5598.632813	-42.791367
5641.699219	-43.229553
5684.765625	-42.096680
5727.832031	-41.213566
5770.898438	-41.462074
5813.964844	-41.598518
5857.031250	-41.348537
5900.097656	-40.739017
5943.164063	-40.064575
5986.230469	-40.770878
6029.296875	-41.894489
6072.363281	-41.001377
6115.429688	-40.498615
6158.496094	-41.304749
6201.562500	-41.441124
6244.628906	-42.277737
6287.695313	-42.424843
6330.761719	-42.821686
6373.828125	-43.354561
6416.894531	-43.700790
6459.960938	-43.659767
6503.027344	-43.401108
6546.093750	-43.198975
6589.160156	-43.253510
6632.226563	-43.527348
6675.292969	-44.021095
6718.359375	-44.040218
6761.425781	-43.919090
6804.492188	-44.004894
6847.558594	-44.510864
6890.625000	-44.425701
6933.691406	-44.410271
6976.757813	-45.742947
7019.824219	-46.523083
7062.890625	-46.980541
7105.957031	-46.820629
7149.023438	-47.018642
7192.089844	-45.780296
7235.156250	-46.154449
7278.222656	-46.694500
7321.289063	-47.010956
7364.355469	-46.663368
7407.421875	-47.413280
7450.488281	-47.972885
7493.554688	-47.875996
7536.621094	-48.068024
7579.687500	-47.578506
7622.753906	-47.549511
7665.820313	-47.004532
7708.886719	-47.312248
7751.953125	-47.632473
7795.019531	-47.924866
7838.085938	-47.270420
7881.152344	-46.573288
7924.218750	-47.486973
7967.285156	-49.541954
8010.351563	-50.370468
8053.417969	-49.943592
8096.484375	-50.040119
8139.550781	-50.860126
8182.617188	-51.115707
8225.683594	-51.294064
8268.750000	-50.792591
8311.816406	-51.045269
8354.882813	-51.431145
8397.949219	-52.389912
8441.015625	-52.234463
8484.082031	-50.906170
8527.148438	-50.579521
8570.214844	-50.528889
8613.281250	-51.143379
8656.347656	-52.589230
8699.414063	-52.370167
8742.480469	-53.198124
8785.546875	-52.823105
8828.613281	-51.978615
8871.679688	-51.377743
8914.746094	-50.628304
8957.812500	-50.999039
9000.878906	-53.110672
9043.945313	-54.284054
9087.011719	-53.874828
9130.078125	-53.029232
9173.144531	-53.522076
9216.210938	-54.840775
9259.277344	-54.685406
9302.343750	-54.767006
9345.410156	-54.628666
9388.476563	-55.091454
9431.542969	-55.904675
9474.609375	-56.876869
9517.675781	-56.998531
9560.742188	-58.015900
9603.808594	-58.266434
9646.875000	-57.979290
9689.941406	-58.423332
9733.007813	-58.507164
9776.074219	-59.833405
9819.140625	-59.781464
9862.207031	-59.800213
9905.273438	-61.046505
9948.339844	-61.642246
9991.406250	-61.786362
10034.472656	-62.211071
10077.539063	-66.499207
10120.605469	-66.288933
10163.671875	-63.202045
10206.738281	-62.143738
10249.804688	-61.944237
10292.871094	-62.042027
10335.937500	-63.844749
10379.003906	-64.128998
10422.070313	-62.498745
10465.136719	-61.021206
10508.203125	-60.042679
10551.269531	-60.248844
10594.335938	-60.493156
10637.402344	-60.492310
10680.468750	-60.507256
10723.535156	-60.372601
10766.601563	-61.280235
10809.667969	-62.586014
10852.734375	-62.390366
10895.800781	-62.763401
10938.867188	-63.992241
10981.933594	-64.911858
11025.000000	-64.192696
11068.066406	-63.368221
11111.132813	-63.967133
11154.199219	-63.980915
11197.265625	-65.496513
11240.332031	-66.576439
11283.398438	-67.321228
11326.464844	-66.970253
11369.531250	-64.954346
11412.597656	-65.302841
11455.664063	-66.876434
11498.730469	-65.537720
11541.796875	-64.688095
11584.863281	-65.349724
11627.929688	-65.525436
11670.996094	-66.978798
11714.062500	-65.796425
11757.128906	-66.792236
11800.195313	-68.222832
11843.261719	-66.949867
11886.328125	-66.381325
11929.394531	-66.268478
11972.460938	-65.822380
12015.527344	-66.576103
12058.593750	-73.463905
12101.660156	-79.116486
12144.726563	-71.526581
12187.792969	-67.799446
12230.859375	-70.760834
12273.925781	-75.180008
12316.992188	-74.552864
12360.058594	-73.162407
12403.125000	-71.604294
12446.191406	-70.370895
12489.257813	-67.537086
12532.324219	-67.567299
12575.390625	-70.018906
12618.457031	-73.397789
12661.523438	-71.071175
12704.589844	-73.029205
12747.656250	-73.578468
12790.722656	-72.910866
12833.789063	-70.592651
12876.855469	-70.696838
12919.921875	-69.834190
12962.988281	-72.650803
13006.054688	-74.241402
13049.121094	-70.643478
13092.187500	-74.844543
13135.253906	-76.595215
13178.320313	-75.511459
13221.386719	-77.210861
13264.453125	-82.089279
13307.519531	-82.840599
13350.585938	-87.066437
13393.652344	-95.442825
13436.718750	-107.795090
13479.785156	-112.945404
13522.851563	-111.617096
13565.917969	-111.150414
13608.984375	-113.044441
13652.050781	-113.063591
13695.117188	-111.096581
13738.183594	-110.971794
13781.250000	-111.092270
13824.316406	-112.554855
13867.382813	-111.953796
13910.449219	-111.101357
13953.515625	-112.431801
13996.582031	-109.973808
14039.648438	-111.019737
14082.714844	-113.058090
14125.781250	-112.144402
14168.847656	-110.590874
14211.914063	-110.724426
14254.980469	-111.033005
14298.046875	-110.952705
14341.113281	-111.675507
14384.179688	-111.352219
14427.246094	-110.854233
14470.312500	-111.967499
14513.378906	-114.408455
14556.445313	-105.380264
14599.511719	-92.025261
14642.578125	-89.171410
14685.644531	-87.141098
14728.710938	-87.787567
14771.777344	-96.673637
14814.843750	-112.933289
14857.910156	-114.809227
14900.976563	-114.502380
14944.042969	-115.369934
14987.109375	-117.335373
15030.175781	-119.903984
15073.242188	-120.369057
15116.308594	-120.058022
15159.375000	-120.213860
15202.441406	-120.417915
15245.507813	-120.410751
15288.574219	-119.824196
15331.640625	-119.933144
15374.707031	-120.261292
15417.773438	-120.530495
15460.839844	-120.023361
15503.906250	-120.079903
15546.972656	-120.422394
15590.039063	-120.325562
15633.105469	-120.296021
15676.171875	-120.426697
15719.238281	-120.428551
15762.304688	-120.485367
15805.371094	-120.408249
15848.437500	-120.261520
15891.503906	-120.121552
15934.570313	-120.041931
15977.636719	-120.174362
16020.703125	-120.321480
16063.769531	-120.411072
16106.835938	-120.038734
16149.902344	-119.911034
16192.968750	-120.300797
16236.035156	-120.263725
16279.101563	-120.274536
16322.167969	-120.515732
16365.234375	-120.625107
16408.300781	-120.161629
16451.367188	-120.140129
16494.433594	-119.884598
16537.500000	-119.883766
16580.566406	-119.846489
16623.632813	-120.052834
16666.699219	-120.630676
16709.765625	-120.568298
16752.832031	-120.150894
16795.898438	-120.190918
16838.964844	-120.082008
16882.031250	-120.002861
16925.097656	-120.125809
16968.164063	-120.166611
17011.230469	-120.309929
17054.296875	-120.459480
17097.363281	-120.386948
17140.429688	-120.562439
17183.496094	-120.529121
17226.562500	-120.359436
17269.628906	-120.352066
17312.695313	-120.494576
17355.761719	-120.735191
17398.828125	-120.594002
17441.894531	-120.138229
17484.960938	-120.173904
17528.027344	-120.110054
17571.093750	-120.124809
17614.160156	-120.368355
17657.226563	-120.458305
17700.292969	-120.019707
17743.359375	-120.056671
17786.425781	-120.311577
17829.492188	-120.469063
17872.558594	-120.195175
17915.625000	-120.123840
17958.691406	-120.308105
18001.757813	-120.460670
18044.824219	-120.457840
18087.890625	-120.253654
18130.957031	-119.971092
18174.023438	-120.113533
18217.089844	-120.319351
18260.156250	-120.451363
18303.222656	-120.631363
18346.289063	-120.303734
18389.355469	-120.302711
18432.421875	-120.430237
18475.488281	-120.399406
18518.554688	-120.736893
18561.621094	-121.053070
18604.687500	-120.865540
18647.753906	-120.710159
18690.820313	-120.413338
18733.886719	-120.356232
18776.953125	-120.240646
18820.019531	-120.461884
18863.085938	-120.250191
18906.152344	-120.131050
18949.218750	-120.245689
18992.285156	-120.065384
19035.351563	-120.157684
19078.417969	-120.362579
19121.484375	-119.995438
19164.550781	-120.373062
19207.617188	-120.668251
19250.683594	-120.343719
19293.750000	-120.276283
19336.816406	-120.072723
19379.882813	-120.012665
19422.949219	-120.280945
19466.015625	-120.801956
19509.082031	-120.506927
19552.148438	-120.058060
19595.214844	-120.022575
19638.281250	-120.141212
19681.347656	-120.335487
19724.414063	-120.440742
19767.480469	-120.531555
19810.546875	-120.248940
19853.613281	-120.226364
19896.679688	-120.221878
19939.746094	-120.563461
19982.812500	-120.560982
20025.878906	-120.538788
20068.945313	-120.560173
20112.011719	-120.274826
20155.078125	-119.863281
20198.144531	-120.219604
20241.210938	-120.377960
20284.277344	-120.029121
20327.343750	-119.771896
20370.410156	-120.170746
20413.476563	-120.704468
20456.542969	-120.592186
20499.609375	-120.628906
20542.675781	-120.521179
20585.742188	-120.620819
20628.808594	-120.783920
20671.875000	-120.502525
20714.941406	-120.288094
20758.007813	-120.246613
20801.074219	-120.598915
20844.140625	-120.654884
20887.207031	-120.530518
20930.273438	-120.518852
20973.339844	-120.115875
21016.406250	-120.383583
21059.472656	-120.159706
21102.539063	-119.879730
21145.605469	-119.924362
21188.671875	-119.944572
21231.738281	-120.103836
21274.804688	-120.254684
21317.871094	-120.061302
21360.937500	-120.064957
21404.003906	-120.163689
21447.070313	-120.309547
21490.136719	-120.167656
21533.203125	-120.366570
21576.269531	-120.169983
21619.335938	-120.010033
21662.402344	-119.975487
21705.468750	-120.253593
21748.535156	-120.529686
21791.601563	-120.417587
21834.667969	-120.508278
21877.734375	-120.389641
21920.800781	-120.227745
21963.867188	-120.260277
22006.933594	-120.335739
