주파수 (Hz)	레벨 (dB)
43.066406	-56.840153
86.132813	-54.975758
129.199219	-50.844036
172.265625	-46.716534
215.332031	-44.471718
258.398438	-41.271336
301.464844	-38.946251
344.531250	-39.695393
387.597656	-39.720001
430.664063	-38.219116
473.730469	-38.497047
516.796875	-38.612167
559.863281	-39.040043
602.929688	-38.560493
645.996094	-37.985081
689.062500	-37.342121
732.128906	-34.799263
775.195313	-34.521633
818.261719	-35.024685
861.328125	-33.223038
904.394531	-26.692926
947.460938	-23.528347
990.527344	-21.263149
1033.593750	-20.046816
1076.660156	-19.472094
1119.726563	-18.640224
1162.792969	-16.998753
1205.859375	-15.018068
1248.925781	-13.476533
1291.992188	-13.469067
1335.058594	-13.903480
1378.125000	-14.667307
1421.191406	-15.955265
1464.257813	-16.858734
1507.324219	-18.176544
1550.390625	-18.467751
1593.457031	-18.890934
1636.523438	-19.187172
1679.589844	-21.253738
1722.656250	-21.872892
1765.722656	-23.650427
1808.789063	-24.648550
1851.855469	-25.262568
1894.921875	-26.185619
1937.988281	-25.397387
1981.054688	-26.335371
2024.121094	-26.163223
2067.187500	-26.295414
2110.253906	-25.848511
2153.320313	-24.953783
2196.386719	-23.605877
2239.453125	-22.676804
2282.519531	-22.680632
2325.585938	-22.801197
2368.652344	-23.363249
2411.718750	-23.665300
2454.785156	-23.058895
2497.851563	-23.663496
2540.917969	-25.155481
2583.984375	-25.824697
2627.050781	-25.961416
2670.117188	-26.440247
2713.183594	-27.274420
2756.250000	-27.772587
2799.316406	-28.186518
2842.382813	-28.078917
2885.449219	-27.911507
2928.515625	-29.102030
2971.582031	-29.226652
3014.648438	-28.753370
3057.714844	-29.220970
3100.781250	-29.557343
3143.847656	-29.647734
3186.914063	-29.702198
3229.980469	-29.203165
3273.046875	-29.223715
3316.113281	-29.529839
3359.179688	-29.692055
3402.246094	-30.386768
3445.312500	-31.255579
3488.378906	-30.818584
3531.445313	-31.955000
3574.511719	-32.738979
3617.578125	-32.483784
3660.644531	-32.998997
3703.710938	-34.139877
3746.777344	-34.191299
3789.843750	-35.026402
3832.910156	-35.648556
3875.976563	-36.355679
3919.042969	-35.800537
3962.109375	-36.115692
4005.175781	-37.640579
4048.242188	-37.972248
4091.308594	-37.945259
4134.375000	-38.832638
4177.441406	-39.004715
4220.507813	-39.401398
4263.574219	-39.433853
4306.640625	-39.390209
4349.707031	-40.512409
4392.773438	-40.048275
4435.839844	-39.995678
4478.906250	-40.987026
4521.972656	-41.287819
4565.039063	-40.999237
4608.105469	-40.986965
4651.171875	-40.045593
4694.238281	-40.385124
4737.304688	-41.530273
4780.371094	-42.636189
4823.437500	-41.463604
4866.503906	-42.288147
4909.570313	-42.288204
4952.636719	-41.801628
4995.703125	-42.270607
5038.769531	-42.298344
5081.835938	-42.742924
5124.902344	-43.301987
5167.968750	-43.555279
5211.035156	-42.236755
5254.101563	-43.779335
5297.167969	-44.775440
5340.234375	-44.524918
5383.300781	-44.119881
5426.367188	-42.447617
5469.433594	-42.847527
5512.500000	-44.014847
5555.566406	-43.473080
5598.632813	-43.415665
5641.699219	-43.579727
5684.765625	-43.968956
5727.832031	-44.885387
5770.898438	-44.757908
5813.964844	-45.143967
5857.031250	-44.463364
5900.097656	-44.035824
5943.164063	-44.013577
5986.230469	-42.815048
6029.296875	-41.379868
6072.363281	-42.363174
6115.429688	-42.674366
6158.496094	-42.360203
6201.562500	-42.847912
6244.628906	-42.545677
6287.695313	-42.536484
6330.761719	-42.996868
6373.828125	-42.942120
6416.894531	-43.410656
6459.960938	-44.744427
6503.027344	-44.637199
6546.093750	-44.143173
6589.160156	-43.508236
6632.226563	-43.519974
6675.292969	-43.690556
6718.359375	-44.700298
6761.425781	-44.470177
6804.492188	-45.183563
6847.558594	-46.325115
6890.625000	-45.384510
6933.691406	-44.358315
6976.757813	-44.906139
7019.824219	-45.586590
7062.890625	-47.542522
7105.957031	-47.360600
7149.023438	-46.071278
7192.089844	-46.288147
7235.156250	-47.676521
7278.222656	-47.299606
7321.289063	-46.057037
7364.355469	-46.987965
7407.421875	-47.675220
7450.488281	-46.951534
7493.554688	-46.122482
7536.621094	-46.475170
7579.687500	-46.892597
7622.753906	-47.294601
7665.820313	-47.589592
7708.886719	-46.792542
7751.953125	-47.906628
7795.019531	-47.188541
7838.085938	-47.901836
7881.152344	-48.451206
7924.218750	-48.561317
7967.285156	-48.175514
8010.351563	-48.461037
8053.417969	-48.692406
8096.484375	-49.178745
8139.550781	-49.129780
8182.617188	-49.369999
8225.683594	-49.839970
8268.750000	-50.278999
8311.816406	-50.029175
8354.882813	-50.300339
8397.949219	-51.129375
8441.015625	-51.208519
8484.082031	-50.367775
8527.148438	-50.878113
8570.214844	-52.766777
8613.281250	-54.010036
8656.347656	-53.884254
8699.414063	-53.081898
8742.480469	-52.915852
8785.546875	-52.845615
8828.613281	-53.568481
8871.679688	-54.285370
8914.746094	-54.192020
8957.812500	-52.784912
9000.878906	-53.747265
9043.945313	-56.406071
9087.011719	-55.456482
9130.078125	-55.766205
9173.144531	-55.020058
9216.210938	-56.110447
9259.277344	-56.091053
9302.343750	-55.219559
9345.410156	-56.699566
9388.476563	-56.536839
9431.542969	-55.829632
9474.609375	-57.567841
9517.675781	-59.344841
9560.742188	-62.832039
9603.808594	-61.776035
9646.875000	-58.325371
9689.941406	-59.049633
9733.007813	-58.046310
9776.074219	-57.189083
9819.140625	-59.185516
9862.207031	-59.483681
9905.273438	-58.896767
9948.339844	-60.328648
9991.406250	-61.352798
10034.472656	-62.820724
10077.539063	-61.292278
10120.605469	-61.778183
10163.671875	-63.469543
10206.738281	-64.950264
10249.804688	-66.189369
10292.871094	-68.155663
10335.937500	-66.245689
10379.003906	-64.736908
10422.070313	-67.076408
10465.136719	-65.843620
10508.203125	-63.505322
10551.269531	-62.693367
10594.335938	-62.900669
10637.402344	-64.259048
10680.468750	-63.823513
10723.535156	-64.182755
10766.601563	-66.874825
10809.667969	-67.957619
10852.734375	-67.649109
10895.800781	-67.697601
10938.867188	-72.143349
10981.933594	-81.199883
11025.000000	-74.207222
11068.066406	-71.807518
11111.132813	-74.161140
11154.199219	-72.495270
11197.265625	-70.364845
11240.332031	-75.351021
11283.398438	-79.687630
11326.464844	-88.064484
11369.531250	-107.574150
11412.597656	-114.589767
11455.664063	-115.785789
11498.730469	-117.017555
11541.796875	-118.050537
11584.863281	-114.441414
11627.929688	-98.200584
11670.996094	-90.568962
11714.062500	-92.996368
11757.128906	-106.533134
11800.195313	-117.744614
11843.261719	-118.518852
11886.328125	-118.746956
11929.394531	-119.086281
11972.460938	-119.027946
12015.527344	-119.181030
12058.593750	-119.502731
12101.660156	-119.507500
12144.726563	-119.094894
12187.792969	-118.989845
12230.859375	-113.771141
12273.925781	-105.509323
12316.992188	-102.119301
12360.058594	-105.170769
12403.125000	-114.560326
12446.191406	-112.956261
12489.257813	-113.638290
12532.324219	-114.711884
12575.390625	-114.550316
12618.457031	-110.419472
12661.523438	-95.339249
12704.589844	-87.254272
12747.656250	-83.989487
12790.722656	-85.288887
12833.789063	-84.213814
12876.855469	-83.920738
12919.921875	-88.866814
12962.988281	-90.592621
13006.054688	-93.959496
13049.121094	-97.187134
13092.187500	-91.094650
13135.253906	-89.525368
13178.320313	-89.038681
13221.386719	-86.541252
13264.453125	-84.993034
13307.519531	-85.258667
13350.585938	-86.446159
13393.652344	-87.603294
13436.718750	-85.784294
13479.785156	-84.303162
13522.851563	-84.101555
13565.917969	-89.902847
13608.984375	-92.091743
13652.050781	-88.571182
13695.117188	-87.395142
13738.183594	-80.139420
13781.250000	-76.656342
13824.316406	-79.605820
13867.382813	-86.776909
13910.449219	-87.660576
13953.515625	-88.470947
13996.582031	-92.891472
14039.648438	-95.942459
14082.714844	-98.074074
14125.781250	-101.291969
14168.847656	-105.388084
14211.914063	-107.386177
14254.980469	-107.141388
14298.046875	-109.402710
14341.113281	-113.243179
14384.179688	-113.455650
14427.246094	-113.637993
14470.312500	-114.439934
14513.378906	-116.487122
14556.445313	-115.144943
14599.511719	-112.867493
14642.578125	-115.981506
14685.644531	-118.951569
14728.710938	-119.822067
14771.777344	-119.392334
14814.843750	-118.580063
14857.910156	-119.105011
14900.976563	-115.529152
14944.042969	-113.218864
14987.109375	-117.381058
15030.175781	-120.103371
15073.242188	-119.668602
15116.308594	-119.809196
15159.375000	-120.221664
15202.441406	-119.990517
15245.507813	-119.395874
15288.574219	-119.412437
15331.640625	-119.853767
15374.707031	-119.301773
15417.773438	-119.411163
15460.839844	-120.113106
15503.906250	-119.522331
15546.972656	-120.142097
15590.039063	-120.333771
15633.105469	-119.804329
15676.171875	-119.956726
15719.238281	-120.544907
15762.304688	-119.924614
15805.371094	-119.886452
15848.437500	-120.125557
15891.503906	-120.500496
15934.570313	-120.319496
15977.636719	-120.525948
16020.703125	-120.740990
16063.769531	-120.953979
16106.835938	-120.504242
16149.902344	-119.689392
16192.968750	-119.441887
16236.035156	-120.642761
16279.101563	-120.934113
16322.167969	-120.223961
16365.234375	-120.186394
16408.300781	-120.530182
16451.367188	-120.140511
16494.433594	-119.840912
16537.500000	-119.727295
16580.566406	-120.280190
16623.632813	-120.811699
16666.699219	-120.857590
16709.765625	-120.426613
16752.832031	-120.067764
16795.898438	-120.067863
16838.964844	-120.034294
16882.031250	-119.653152
16925.097656	-119.826866
16968.164063	-119.948303
17011.230469	-120.086548
17054.296875	-119.786148
17097.363281	-120.567146
17140.429688	-120.003975
17183.496094	-119.490051
17226.562500	-120.862564
17269.628906	-119.862251
17312.695313	-119.857124
17355.761719	-120.318161
17398.828125	-119.726814
17441.894531	-119.964615
17484.960938	-120.495575
17528.027344	-120.076393
17571.093750	-119.871506
17614.160156	-120.150925
17657.226563	-119.922310
17700.292969	-120.138199
17743.359375	-121.191360
17786.425781	-121.124313
17829.492188	-120.409996
17872.558594	-120.475563
17915.625000	-120.744705
17958.691406	-120.342834
18001.757813	-120.097847
18044.824219	-119.798943
18087.890625	-120.282890
18130.957031	-119.733101
18174.023438	-119.700439
18217.089844	-120.349129
18260.156250	-120.267570
18303.222656	-120.368362
18346.289063	-119.893990
18389.355469	-120.921898
18432.421875	-120.666634
18475.488281	-120.702446
18518.554688	-120.299973
18561.621094	-120.932587
18604.687500	-121.367485
18647.753906	-120.564056
18690.820313	-119.980431
18733.886719	-120.580833
18776.953125	-121.036018
18820.019531	-120.300285
18863.085938	-119.187019
18906.152344	-120.665581
18949.218750	-120.908669
18992.285156	-121.325851
19035.351563	-120.988541
19078.417969	-120.246384
19121.484375	-120.250511
19164.550781	-120.131607
19207.617188	-120.213852
19250.683594	-120.194946
19293.750000	-119.850853
19336.816406	-119.923180
19379.882813	-119.865295
19422.949219	-119.804672
19466.015625	-119.355339
19509.082031	-119.879051
19552.148438	-120.110550
19595.214844	-119.889297
19638.281250	-120.336082
19681.347656	-120.732666
19724.414063	-120.715561
19767.480469	-120.747017
19810.546875	-120.471298
19853.613281	-119.952248
19896.679688	-120.074509
19939.746094	-119.861649
19982.812500	-120.194168
20025.878906	-119.835762
20068.945313	-119.942924
20112.011719	-120.326599
20155.078125	-120.517197
20198.144531	-119.919418
20241.210938	-119.493706
20284.277344	-120.576233
20327.343750	-120.654312
20370.410156	-120.300201
20413.476563	-119.824409
20456.542969	-120.179108
20499.609375	-120.835556
20542.675781	-120.630501
20585.742188	-120.262093
20628.808594	-120.177246
20671.875000	-119.966614
20714.941406	-120.974022
20758.007813	-120.515602
20801.074219	-120.402649
20844.140625	-120.785065
20887.207031	-120.400330
20930.273438	-120.644394
20973.339844	-120.828102
21016.406250	-120.699951
21059.472656	-120.067253
21102.539063	-120.227638
21145.605469	-120.777702
21188.671875	-120.816246
21231.738281	-120.645973
21274.804688	-120.353729
21317.871094	-120.748962
21360.937500	-120.767303
21404.003906	-120.818878
21447.070313	-120.458672
21490.136719	-120.244675
21533.203125	-120.228790
21576.269531	-120.575233
21619.335938	-120.843224
21662.402344	-120.891998
21705.468750	-120.422874
21748.535156	-120.536827
21791.601563	-120.907158
21834.667969	-121.136780
21877.734375	-120.790688
21920.800781	-120.228004
21963.867188	-120.113182
22006.933594	-120.147888
