주파수 (Hz)	레벨 (dB)
43.066406	-27.526072
86.132813	-25.963608
129.199219	-25.758461
172.265625	-20.796206
215.332031	-18.075806
258.398438	-17.661364
301.464844	-17.889647
344.531250	-22.578741
387.597656	-26.915443
430.664063	-25.981310
473.730469	-25.861322
516.796875	-27.590441
559.863281	-28.774282
602.929688	-27.051476
645.996094	-23.890522
689.062500	-21.365721
732.128906	-22.746101
775.195313	-25.087841
818.261719	-24.279211
861.328125	-20.754139
904.394531	-22.059937
947.460938	-28.484537
990.527344	-31.111643
1033.593750	-31.639952
1076.660156	-31.505770
1119.726563	-31.597992
1162.792969	-32.500740
1205.859375	-34.395679
1248.925781	-34.348694
1291.992188	-34.576237
1335.058594	-35.985153
1378.125000	-38.556271
1421.191406	-39.555580
1464.257813	-37.491734
1507.324219	-35.003300
1550.390625	-34.396652
1593.457031	-36.018620
1636.523438	-38.118370
1679.589844	-35.582981
1722.656250	-35.116570
1765.722656	-36.435574
1808.789063	-35.776993
1851.855469	-35.010208
1894.921875	-32.427761
1937.988281	-32.599869
1981.054688	-34.581543
2024.121094	-33.378948
2067.187500	-32.863796
2110.253906	-33.494301
2153.320313	-35.246063
2196.386719	-36.714806
2239.453125	-37.488407
2282.519531	-39.184792
2325.585938	-39.943062
2368.652344	-39.511856
2411.718750	-38.919571
2454.785156	-38.375023
2497.851563	-38.654682
2540.917969	-36.904358
2583.984375	-36.249157
2627.050781	-36.326729
2670.117188	-36.398090
2713.183594	-38.547569
2756.250000	-39.260509
2799.316406	-39.860748
2842.382813	-42.008400
2885.449219	-43.101803
2928.515625	-42.621353
2971.582031	-40.549091
3014.648438	-41.261150
3057.714844	-41.546162
3100.781250	-40.382122
3143.847656	-38.726589
3186.914063	-39.047356
3229.980469	-39.692551
3273.046875	-40.061455
3316.113281	-41.183315
3359.179688	-42.602352
3402.246094	-43.654358
3445.312500	-45.579556
3488.378906	-46.917175
3531.445313	-46.820038
3574.511719	-46.159771
3617.578125	-45.842297
3660.644531	-44.584160
3703.710938	-44.235519
3746.777344	-45.525841
3789.843750	-46.002930
3832.910156	-45.022408
3875.976563	-45.786781
3919.042969	-46.888180
3962.109375	-46.504192
4005.175781	-46.495174
4048.242188	-45.792534
4091.308594	-44.957062
4134.375000	-43.115456
4177.441406	-41.954975
4220.507813	-41.351006
4263.574219	-41.192276
4306.640625	-41.795525
4349.707031	-41.640224
4392.773438	-41.891251
4435.839844	-43.210838
4478.906250	-43.462242
4521.972656	-43.237862
4565.039063	-42.743900
4608.105469	-42.036980
4651.171875	-42.311756
4694.238281	-42.145084
4737.304688	-43.098068
4780.371094	-43.778183
4823.437500	-44.761978
4866.503906	-44.040760
4909.570313	-42.965668
4952.636719	-43.837395
4995.703125	-44.423965
5038.769531	-45.015541
5081.835938	-45.401409
5124.902344	-45.901688
5167.968750	-46.322563
5211.035156	-45.314217
5254.101563	-43.552010
5297.167969	-42.824123
5340.234375	-42.316906
5383.300781	-42.244366
5426.367188	-42.352184
5469.433594	-43.420300
5512.500000	-45.952305
5555.566406	-48.142731
5598.632813	-48.431648
5641.699219	-45.017582
5684.765625	-44.604176
5727.832031	-43.345108
5770.898438	-43.403069
5813.964844	-43.365089
5857.031250	-42.574398
5900.097656	-43.276165
5943.164063	-45.097366
5986.230469	-43.538807
6029.296875	-44.040932
6072.363281	-46.175377
6115.429688	-45.822727
6158.496094	-47.771358
6201.562500	-49.659157
6244.628906	-48.594208
6287.695313	-47.734875
6330.761719	-47.858406
6373.828125	-46.513729
6416.894531	-45.948872
6459.960938	-46.008842
6503.027344	-45.285198
6546.093750	-44.672779
6589.160156	-46.198559
6632.226563	-45.430901
6675.292969	-46.670597
6718.359375	-48.057758
6761.425781	-47.078365
6804.492188	-48.242004
6847.558594	-48.631069
6890.625000	-49.574291
6933.691406	-49.827442
6976.757813	-49.758945
7019.824219	-49.585438
7062.890625	-48.647018
7105.957031	-47.901867
7149.023438	-46.860439
7192.089844	-44.614388
7235.156250	-45.353958
7278.222656	-46.773273
7321.289063	-47.137508
7364.355469	-45.941929
7407.421875	-46.426201
7450.488281	-45.461441
7493.554688	-44.748856
7536.621094	-45.476074
7579.687500	-46.634209
7622.753906	-47.660038
7665.820313	-46.014133
7708.886719	-43.368275
7751.953125	-44.259823
7795.019531	-45.725731
7838.085938	-45.627113
7881.152344	-46.371201
7924.218750	-45.981659
7967.285156	-44.472851
8010.351563	-44.354977
8053.417969	-43.178181
8096.484375	-44.089207
8139.550781	-44.822220
8182.617188	-43.133179
8225.683594	-41.835842
8268.750000	-43.571960
8311.816406	-44.481621
8354.882813	-44.985966
8397.949219	-45.481430
8441.015625	-44.412842
8484.082031	-40.823292
8527.148438	-40.397671
8570.214844	-42.261642
8613.281250	-41.001003
8656.347656	-40.340248
8699.414063	-42.290226
8742.480469	-43.256390
8785.546875	-43.083103
8828.613281	-43.717148
8871.679688	-44.462925
8914.746094	-44.431938
8957.812500	-44.401058
9000.878906	-43.349457
9043.945313	-43.572754
9087.011719	-43.374626
9130.078125	-43.311386
9173.144531	-42.386051
9216.210938	-40.863068
9259.277344	-40.273964
9302.343750	-40.051319
9345.410156	-41.907047
9388.476563	-44.388790
9431.542969	-39.415691
9474.609375	-37.847939
9517.675781	-40.301697
9560.742188	-43.461834
9603.808594	-44.475487
9646.875000	-46.937679
9689.941406	-47.142891
9733.007813	-47.459522
9776.074219	-46.557255
9819.140625	-42.897854
9862.207031	-42.988930
9905.273438	-45.612843
9948.339844	-43.331738
9991.406250	-42.841366
10034.472656	-44.086445
10077.539063	-47.448620
10120.605469	-48.182484
10163.671875	-48.270672
10206.738281	-47.309475
10249.804688	-48.656067
10292.871094	-47.007607
10335.937500	-46.255386
10379.003906	-48.519020
10422.070313	-48.719372
10465.136719	-48.747311
10508.203125	-46.999729
10551.269531	-46.246376
10594.335938	-48.932442
10637.402344	-48.670284
10680.468750	-48.161186
10723.535156	-46.956337
10766.601563	-45.743649
10809.667969	-47.542652
10852.734375	-47.971607
10895.800781	-49.201176
10938.867188	-49.612450
10981.933594	-50.169186
11025.000000	-52.054745
11068.066406	-50.531754
11111.132813	-50.791344
11154.199219	-51.579197
11197.265625	-50.666340
11240.332031	-50.398148
11283.398438	-49.747917
11326.464844	-47.853817
11369.531250	-48.150616
11412.597656	-49.929913
11455.664063	-48.739395
11498.730469	-50.901661
11541.796875	-51.486519
11584.863281	-50.425575
11627.929688	-51.268955
11670.996094	-51.216648
11714.062500	-48.707310
11757.128906	-51.395081
11800.195313	-53.066532
11843.261719	-52.840137
11886.328125	-52.297028
11929.394531	-53.325687
11972.460938	-54.609489
12015.527344	-53.581978
12058.593750	-53.886265
12101.660156	-52.716423
12144.726563	-52.706348
12187.792969	-52.785954
12230.859375	-52.935535
12273.925781	-52.618633
12316.992188	-54.061020
12360.058594	-54.732952
12403.125000	-55.429340
12446.191406	-54.675220
12489.257813	-54.872944
12532.324219	-55.834530
12575.390625	-55.472195
12618.457031	-55.254005
12661.523438	-55.833424
12704.589844	-54.999184
12747.656250	-53.672935
12790.722656	-54.632526
12833.789063	-55.355759
12876.855469	-55.974777
12919.921875	-56.199802
12962.988281	-57.863758
13006.054688	-57.668324
13049.121094	-55.936050
13092.187500	-56.900581
13135.253906	-57.165554
13178.320313	-58.025917
13221.386719	-57.558907
13264.453125	-58.052395
13307.519531	-56.614010
13350.585938	-56.332630
13393.652344	-57.431316
13436.718750	-58.115997
13479.785156	-58.365204
13522.851563	-57.739971
13565.917969	-56.892059
13608.984375	-56.851654
13652.050781	-57.049004
13695.117188	-56.595722
13738.183594	-57.855915
13781.250000	-58.463512
13824.316406	-59.163078
13867.382813	-58.949917
13910.449219	-59.964478
13953.515625	-60.952053
13996.582031	-60.387703
14039.648438	-59.233253
14082.714844	-59.955181
14125.781250	-59.965664
14168.847656	-59.194157
14211.914063	-59.047749
14254.980469	-58.220764
14298.046875	-58.920238
14341.113281	-60.199947
14384.179688	-59.699322
14427.246094	-59.823654
14470.312500	-62.210781
14513.378906	-61.973663
14556.445313	-62.062805
14599.511719	-62.654396
14642.578125	-64.425705
14685.644531	-67.177361
14728.710938	-65.759247
14771.777344	-64.795403
14814.843750	-63.831188
14857.910156	-65.770111
14900.976563	-67.899193
14944.042969	-66.845741
14987.109375	-66.837555
15030.175781	-73.850082
15073.242188	-81.962013
15116.308594	-84.448135
15159.375000	-87.719467
15202.441406	-96.579506
15245.507813	-102.446762
15288.574219	-104.384964
15331.640625	-106.866699
15374.707031	-107.917336
15417.773438	-108.219971
15460.839844	-111.026688
15503.906250	-114.997169
15546.972656	-117.103882
15590.039063	-117.326668
15633.105469	-116.900040
15676.171875	-117.690834
15719.238281	-116.530106
15762.304688	-113.899971
15805.371094	-115.269135
15848.437500	-117.227791
15891.503906	-117.837776
15934.570313	-118.095123
15977.636719	-118.174896
16020.703125	-118.889923
16063.769531	-118.498398
16106.835938	-116.559082
16149.902344	-117.314583
16192.968750	-118.155464
16236.035156	-117.316948
16279.101563	-116.994583
16322.167969	-117.599960
16365.234375	-118.728149
16408.300781	-118.084923
16451.367188	-116.951218
16494.433594	-118.290848
16537.500000	-119.751984
16580.566406	-119.710846
16623.632813	-119.465446
16666.699219	-119.378654
16709.765625	-120.125977
16752.832031	-119.472939
16795.898438	-118.127625
16838.964844	-119.298271
16882.031250	-120.056160
16925.097656	-119.810410
16968.164063	-119.924431
17011.230469	-119.853142
17054.296875	-120.080353
17097.363281	-119.418205
17140.429688	-118.338089
17183.496094	-119.443466
17226.562500	-120.182259
17269.628906	-119.872322
17312.695313	-119.603584
17355.761719	-120.037079
17398.828125	-119.959351
17441.894531	-119.635849
17484.960938	-119.019417
17528.027344	-120.006706
17571.093750	-120.327164
17614.160156	-120.098213
17657.226563	-119.877800
17700.292969	-119.975243
17743.359375	-120.077553
17786.425781	-119.723114
17829.492188	-119.359428
17872.558594	-119.841629
17915.625000	-120.218338
17958.691406	-120.140869
18001.757813	-120.065437
18044.824219	-120.410889
18087.890625	-120.403442
18130.957031	-119.834259
18174.023438	-119.191513
18217.089844	-119.804329
18260.156250	-120.244850
18303.222656	-120.379044
18346.289063	-120.198105
18389.355469	-120.309196
18432.421875	-120.313232
18475.488281	-119.899925
18518.554688	-119.487610
18561.621094	-119.907066
18604.687500	-120.420067
18647.753906	-120.459869
18690.820313	-119.922844
18733.886719	-120.183952
18776.953125	-120.351425
18820.019531	-119.854034
18863.085938	-119.629189
18906.152344	-120.446198
18949.218750	-120.391418
18992.285156	-120.308067
19035.351563	-119.956154
19078.417969	-120.045090
19121.484375	-119.951065
19164.550781	-119.888748
19207.617188	-119.759911
19250.683594	-120.303421
19293.750000	-120.401703
19336.816406	-120.266846
19379.882813	-120.353386
19422.949219	-120.295189
19466.015625	-120.314865
19509.082031	-120.237495
19552.148438	-119.672981
19595.214844	-120.023582
19638.281250	-120.311035
19681.347656	-119.992767
19724.414063	-119.975029
19767.480469	-120.458519
19810.546875	-119.980042
19853.613281	-119.796638
19896.679688	-119.941750
19939.746094	-120.449615
19982.812500	-120.810059
20025.878906	-120.620209
20068.945313	-120.452438
20112.011719	-120.330421
20155.078125	-120.321045
20198.144531	-120.329903
20241.210938	-120.057938
20284.277344	-120.382126
20327.343750	-120.512375
20370.410156	-120.200172
20413.476563	-119.695480
20456.542969	-119.921089
20499.609375	-120.476692
20542.675781	-120.196152
20585.742188	-119.785248
20628.808594	-120.112587
20671.875000	-120.161392
20714.941406	-120.349693
20758.007813	-119.839012
20801.074219	-120.206772
20844.140625	-120.498985
20887.207031	-119.983833
20930.273438	-119.744316
20973.339844	-120.073769
21016.406250	-120.157913
21059.472656	-120.243828
21102.539063	-120.094208
21145.605469	-120.243919
21188.671875	-119.916023
21231.738281	-119.961311
21274.804688	-119.918007
21317.871094	-120.388695
21360.937500	-120.508980
21404.003906	-120.214996
21447.070313	-120.079887
21490.136719	-120.579880
21533.203125	-120.201492
21576.269531	-120.205193
21619.335938	-120.118416
21662.402344	-120.154205
21705.468750	-120.542137
21748.535156	-120.272125
21791.601563	-120.333443
21834.667969	-120.411079
21877.734375	-120.277451
21920.800781	-120.314362
21963.867188	-119.903435
22006.933594	-120.132065
