주파수 (Hz)	레벨 (dB)
43.066406	-37.138138
86.132813	-42.204033
129.199219	-30.653439
172.265625	-24.942341
215.332031	-21.585861
258.398438	-17.697893
301.464844	-16.454977
344.531250	-18.542049
387.597656	-21.784151
430.664063	-28.059071
473.730469	-27.733572
516.796875	-27.835430
559.863281	-26.290936
602.929688	-26.404871
645.996094	-26.830894
689.062500	-26.611055
732.128906	-25.059431
775.195313	-23.713591
818.261719	-23.692913
861.328125	-24.623919
904.394531	-25.779316
947.460938	-26.947495
990.527344	-29.286692
1033.593750	-31.652699
1076.660156	-31.289665
1119.726563	-29.977688
1162.792969	-31.951809
1205.859375	-33.763432
1248.925781	-33.542316
1291.992188	-32.181644
1335.058594	-33.569145
1378.125000	-35.944958
1421.191406	-35.802212
1464.257813	-34.256710
1507.324219	-33.538528
1550.390625	-33.124084
1593.457031	-35.012756
1636.523438	-37.536381
1679.589844	-37.900330
1722.656250	-38.724442
1765.722656	-41.344185
1808.789063	-43.957649
1851.855469	-44.076492
1894.921875	-44.778080
1937.988281	-44.675556
1981.054688	-41.551685
2024.121094	-40.557205
2067.187500	-44.990265
2110.253906	-46.845798
2153.320313	-46.678844
2196.386719	-44.548191
2239.453125	-42.850498
2282.519531	-41.387417
2325.585938	-40.463882
2368.652344	-40.971298
2411.718750	-44.816261
2454.785156	-45.812664
2497.851563	-45.093590
2540.917969	-44.846581
2583.984375	-45.942421
2627.050781	-45.016224
2670.117188	-41.867298
2713.183594	-44.042892
2756.250000	-48.434105
2799.316406	-48.748707
2842.382813	-48.217724
2885.449219	-47.882851
2928.515625	-46.900833
2971.582031	-45.143665
3014.648438	-43.842022
3057.714844	-44.830437
3100.781250	-44.607124
3143.847656	-45.631477
3186.914063	-44.724716
3229.980469	-43.763767
3273.046875	-43.568024
3316.113281	-42.715969
3359.179688	-42.358768
3402.246094	-44.421421
3445.312500	-45.139057
3488.378906	-47.732544
3531.445313	-48.885155
3574.511719	-48.180813
3617.578125	-46.329369
3660.644531	-45.590511
3703.710938	-46.238213
3746.777344	-48.285610
3789.843750	-47.252262
3832.910156	-47.130650
3875.976563	-48.262173
3919.042969	-47.964241
3962.109375	-46.884090
4005.175781	-43.985218
4048.242188	-44.232563
4091.308594	-45.640240
4134.375000	-46.447102
4177.441406	-45.525726
4220.507813	-44.333488
4263.574219	-44.473186
4306.640625	-41.740528
4349.707031	-39.714615
4392.773438	-41.395077
4435.839844	-43.714802
4478.906250	-44.656719
4521.972656	-45.699772
4565.039063	-46.067223
4608.105469	-43.595848
4651.171875	-43.425137
4694.238281	-45.528042
4737.304688	-45.722897
4780.371094	-44.226494
4823.437500	-44.046318
4866.503906	-43.724243
4909.570313	-44.280926
4952.636719	-44.564980
4995.703125	-43.483658
5038.769531	-44.329281
5081.835938	-46.311523
5124.902344	-45.892044
5167.968750	-45.694641
5211.035156	-46.578388
5254.101563	-47.332905
5297.167969	-48.974808
5340.234375	-49.079205
5383.300781	-49.372269
5426.367188	-49.721424
5469.433594	-49.734032
5512.500000	-49.132736
5555.566406	-48.363068
5598.632813	-48.280571
5641.699219	-47.591156
5684.765625	-45.487682
5727.832031	-47.581215
5770.898438	-48.244888
5813.964844	-46.588017
5857.031250	-45.960320
5900.097656	-42.682743
5943.164063	-42.883148
5986.230469	-46.151928
6029.296875	-46.117119
6072.363281	-44.995739
6115.429688	-45.764294
6158.496094	-48.020718
6201.562500	-47.068764
6244.628906	-45.657036
6287.695313	-45.355865
6330.761719	-44.291599
6373.828125	-42.435120
6416.894531	-43.123062
6459.960938	-43.448521
6503.027344	-41.849758
6546.093750	-43.138187
6589.160156	-46.445004
6632.226563	-47.189369
6675.292969	-46.834267
6718.359375	-46.388603
6761.425781	-46.380409
6804.492188	-46.922173
6847.558594	-47.527824
6890.625000	-45.502598
6933.691406	-45.559837
6976.757813	-45.785221
7019.824219	-45.805622
7062.890625	-47.047810
7105.957031	-47.107452
7149.023438	-46.314217
7192.089844	-47.445408
7235.156250	-46.095245
7278.222656	-45.398464
7321.289063	-45.691223
7364.355469	-45.125832
7407.421875	-44.788155
7450.488281	-44.776737
7493.554688	-45.078053
7536.621094	-45.406826
7579.687500	-46.016541
7622.753906	-44.507671
7665.820313	-43.604980
7708.886719	-43.789661
7751.953125	-43.262550
7795.019531	-43.701485
7838.085938	-44.110611
7881.152344	-45.168495
7924.218750	-44.393711
7967.285156	-42.636669
8010.351563	-42.168648
8053.417969	-43.343864
8096.484375	-43.118843
8139.550781	-42.741634
8182.617188	-42.378483
8225.683594	-42.628899
8268.750000	-43.368301
8311.816406	-43.334900
8354.882813	-43.775200
8397.949219	-44.109917
8441.015625	-41.684444
8484.082031	-41.166859
8527.148438	-44.275116
8570.214844	-43.051140
8613.281250	-43.073601
8656.347656	-44.030903
8699.414063	-43.262680
8742.480469	-44.372990
8785.546875	-43.857277
8828.613281	-43.461666
8871.679688	-42.684616
8914.746094	-41.992867
8957.812500	-43.278156
9000.878906	-43.700443
9043.945313	-44.008816
9087.011719	-43.602272
9130.078125	-43.669849
9173.144531	-45.586098
9216.210938	-47.890797
9259.277344	-46.585350
9302.343750	-47.613232
9345.410156	-47.534103
9388.476563	-47.283710
9431.542969	-45.715916
9474.609375	-41.516773
9517.675781	-40.990551
9560.742188	-41.874439
9603.808594	-42.162632
9646.875000	-42.790852
9689.941406	-42.469948
9733.007813	-43.028011
9776.074219	-43.391346
9819.140625	-43.100361
9862.207031	-41.196796
9905.273438	-41.907764
9948.339844	-43.677647
9991.406250	-43.795635
10034.472656	-44.353878
10077.539063	-46.895622
10120.605469	-46.827427
10163.671875	-48.711552
10206.738281	-50.487469
10249.804688	-49.009682
10292.871094	-48.022873
10335.937500	-47.650337
10379.003906	-45.724854
10422.070313	-43.570271
10465.136719	-42.094341
10508.203125	-43.291325
10551.269531	-43.439186
10594.335938	-45.263123
10637.402344	-47.492695
10680.468750	-48.135208
10723.535156	-48.673233
10766.601563	-49.798969
10809.667969	-49.510971
10852.734375	-49.090092
10895.800781	-50.267677
10938.867188	-52.535137
10981.933594	-51.867439
11025.000000	-50.302937
11068.066406	-50.060982
11111.132813	-51.618828
11154.199219	-52.251045
11197.265625	-51.724171
11240.332031	-50.342056
11283.398438	-50.187935
11326.464844	-50.096832
11369.531250	-50.925903
11412.597656	-52.013477
11455.664063	-52.037403
11498.730469	-53.108929
11541.796875	-53.281982
11584.863281	-51.797520
11627.929688	-51.575542
11670.996094	-51.259041
11714.062500	-51.778458
11757.128906	-52.736626
11800.195313	-52.466145
11843.261719	-51.818871
11886.328125	-52.810051
11929.394531	-51.800507
11972.460938	-51.124851
12015.527344	-51.515884
12058.593750	-52.387283
12101.660156	-54.196541
12144.726563	-51.386192
12187.792969	-50.523075
12230.859375	-51.367226
12273.925781	-51.745945
12316.992188	-51.393909
12360.058594	-52.624943
12403.125000	-52.185017
12446.191406	-50.583248
12489.257813	-51.100658
12532.324219	-52.473110
12575.390625	-53.455402
12618.457031	-53.641094
12661.523438	-53.643131
12704.589844	-53.699360
12747.656250	-54.201694
12790.722656	-53.017933
12833.789063	-53.617767
12876.855469	-54.508537
12919.921875	-54.076065
12962.988281	-53.176167
13006.054688	-53.805431
13049.121094	-53.225491
13092.187500	-52.543152
13135.253906	-53.582428
13178.320313	-53.990219
13221.386719	-53.130245
13264.453125	-53.042114
13307.519531	-53.332432
13350.585938	-53.843731
13393.652344	-53.050838
13436.718750	-53.280746
13479.785156	-53.873806
13522.851563	-54.400654
13565.917969	-54.109097
13608.984375	-53.524609
13652.050781	-53.882858
13695.117188	-52.669090
13738.183594	-52.703068
13781.250000	-53.542110
13824.316406	-54.044449
13867.382813	-53.562279
13910.449219	-53.481968
13953.515625	-54.562992
13996.582031	-54.222595
14039.648438	-54.170773
14082.714844	-55.253761
14125.781250	-55.832718
14168.847656	-54.301701
14211.914063	-55.471420
14254.980469	-55.139763
14298.046875	-55.059696
14341.113281	-54.692165
14384.179688	-56.194763
14427.246094	-57.238651
14470.312500	-57.382038
14513.378906	-56.916599
14556.445313	-57.630463
14599.511719	-58.052639
14642.578125	-58.199333
14685.644531	-58.293621
14728.710938	-59.913692
14771.777344	-61.858303
14814.843750	-60.544998
14857.910156	-58.752373
14900.976563	-58.482632
14944.042969	-60.723934
14987.109375	-65.341949
15030.175781	-70.980431
15073.242188	-74.088905
15116.308594	-78.272011
15159.375000	-83.658142
15202.441406	-91.444611
15245.507813	-92.890327
15288.574219	-93.833069
15331.640625	-98.154449
15374.707031	-98.937523
15417.773438	-98.620392
15460.839844	-100.296738
15503.906250	-102.931847
15546.972656	-104.037750
15590.039063	-103.069313
15633.105469	-103.280563
15676.171875	-105.845779
15719.238281	-105.744453
15762.304688	-105.377579
15805.371094	-107.109459
15848.437500	-108.307938
15891.503906	-108.530380
15934.570313	-107.820122
15977.636719	-107.372406
16020.703125	-109.451973
16063.769531	-109.066483
16106.835938	-108.158127
16149.902344	-109.691139
16192.968750	-111.382607
16236.035156	-110.627403
16279.101563	-110.414574
16322.167969	-110.337997
16365.234375	-111.624214
16408.300781	-110.978416
16451.367188	-110.368088
16494.433594	-112.643791
16537.500000	-115.752914
16580.566406	-114.087196
16623.632813	-114.100388
16666.699219	-115.292610
16709.765625	-116.824829
16752.832031	-114.608772
16795.898438	-113.059250
16838.964844	-115.259766
16882.031250	-117.693092
16925.097656	-115.675674
16968.164063	-115.310684
17011.230469	-116.281006
17054.296875	-117.147591
17097.363281	-115.541229
17140.429688	-114.439804
17183.496094	-116.485664
17226.562500	-118.056320
17269.628906	-116.212196
17312.695313	-116.055748
17355.761719	-116.931091
17398.828125	-117.596642
17441.894531	-116.245468
17484.960938	-115.049225
17528.027344	-116.625809
17571.093750	-118.328102
17614.160156	-116.572151
17657.226563	-117.039879
17700.292969	-117.910027
17743.359375	-118.099586
17786.425781	-116.697968
17829.492188	-115.994217
17872.558594	-117.615166
17915.625000	-118.306999
17958.691406	-116.511856
18001.757813	-116.944267
18044.824219	-117.997925
18087.890625	-118.275124
18130.957031	-116.699585
18174.023438	-115.836342
18217.089844	-117.330231
18260.156250	-118.241272
18303.222656	-117.517090
18346.289063	-117.895058
18389.355469	-118.508972
18432.421875	-119.052765
18475.488281	-117.634926
18518.554688	-116.641418
18561.621094	-117.728279
18604.687500	-118.805115
18647.753906	-117.288177
18690.820313	-117.244614
18733.886719	-118.088127
18776.953125	-118.178894
18820.019531	-117.714722
18863.085938	-117.134254
18906.152344	-117.949066
18949.218750	-118.501732
18992.285156	-117.903030
19035.351563	-118.147011
19078.417969	-118.973709
19121.484375	-118.802071
19164.550781	-117.731422
19207.617188	-117.638855
19250.683594	-118.247772
19293.750000	-118.518761
19336.816406	-117.972733
19379.882813	-117.721596
19422.949219	-118.582489
19466.015625	-118.966728
19509.082031	-118.239876
19552.148438	-118.256088
19595.214844	-118.505806
19638.281250	-119.003723
19681.347656	-118.325630
19724.414063	-118.415283
19767.480469	-118.729004
19810.546875	-118.885376
19853.613281	-118.761177
19896.679688	-118.279648
19939.746094	-118.773491
19982.812500	-118.798233
20025.878906	-117.879036
20068.945313	-117.889656
20112.011719	-117.972641
20155.078125	-118.504097
20198.144531	-118.232880
20241.210938	-118.032692
20284.277344	-118.431519
20327.343750	-118.055634
20370.410156	-118.025528
20413.476563	-118.482964
20456.542969	-118.656174
20499.609375	-118.716202
20542.675781	-118.437019
20585.742188	-118.765129
20628.808594	-118.761475
20671.875000	-119.163666
20714.941406	-118.807503
20758.007813	-118.750504
20801.074219	-118.562325
20844.140625	-118.577347
20887.207031	-118.695313
20930.273438	-118.398743
20973.339844	-118.856110
21016.406250	-119.234879
21059.472656	-118.965080
21102.539063	-118.483475
21145.605469	-118.441620
21188.671875	-118.580894
21231.738281	-118.377487
21274.804688	-117.940559
21317.871094	-118.450333
21360.937500	-118.898895
21404.003906	-118.239525
21447.070313	-118.516335
21490.136719	-119.084312
21533.203125	-119.003128
21576.269531	-118.699364
21619.335938	-118.682175
21662.402344	-119.032486
21705.468750	-118.851738
21748.535156	-118.901276
21791.601563	-118.784607
21834.667969	-118.596977
21877.734375	-118.856384
21920.800781	-118.380302
21963.867188	-118.041115
22006.933594	-117.793159
