주파수 (Hz)	레벨 (dB)
43.066406	-35.486954
86.132813	-40.861122
129.199219	-28.732908
172.265625	-20.391273
215.332031	-16.250576
258.398438	-12.328641
301.464844	-13.089297
344.531250	-16.420841
387.597656	-22.782103
430.664063	-23.344982
473.730469	-24.725502
516.796875	-27.737387
559.863281	-29.569445
602.929688	-26.850395
645.996094	-24.297510
689.062500	-26.525288
732.128906	-28.647329
775.195313	-28.328400
818.261719	-29.024794
861.328125	-29.626049
904.394531	-29.342625
947.460938	-29.845720
990.527344	-35.206272
1033.593750	-37.767281
1076.660156	-38.452053
1119.726563	-38.555225
1162.792969	-37.107758
1205.859375	-39.222084
1248.925781	-41.904598
1291.992188	-42.301075
1335.058594	-42.854305
1378.125000	-40.421684
1421.191406	-41.110603
1464.257813	-41.364422
1507.324219	-38.752457
1550.390625	-38.053894
1593.457031	-39.049732
1636.523438	-40.753567
1679.589844	-39.640213
1722.656250	-39.191982
1765.722656	-40.992809
1808.789063	-43.288433
1851.855469	-42.125072
1894.921875	-40.820354
1937.988281	-41.316074
1981.054688	-40.048664
2024.121094	-38.179966
2067.187500	-39.480244
2110.253906	-41.680382
2153.320313	-43.103561
2196.386719	-41.910931
2239.453125	-40.535236
2282.519531	-39.902115
2325.585938	-40.490566
2368.652344	-37.884850
2411.718750	-36.493477
2454.785156	-37.133633
2497.851563	-36.754589
2540.917969	-36.967728
2583.984375	-34.544163
2627.050781	-34.448833
2670.117188	-36.532990
2713.183594	-36.724102
2756.250000	-36.612465
2799.316406	-38.549286
2842.382813	-40.206223
2885.449219	-39.584015
2928.515625	-39.857285
2971.582031	-40.974014
3014.648438	-41.916492
3057.714844	-40.410728
3100.781250	-40.171856
3143.847656	-41.553806
3186.914063	-41.787983
3229.980469	-40.140202
3273.046875	-39.767494
3316.113281	-41.055595
3359.179688	-42.032787
3402.246094	-42.463409
3445.312500	-42.151268
3488.378906	-43.784512
3531.445313	-43.968060
3574.511719	-43.667377
3617.578125	-43.967113
3660.644531	-43.896702
3703.710938	-43.899467
3746.777344	-44.575825
3789.843750	-45.006054
3832.910156	-44.704601
3875.976563	-45.020615
3919.042969	-44.177128
3962.109375	-43.674965
4005.175781	-43.043564
4048.242188	-43.411991
4091.308594	-42.491737
4134.375000	-41.172665
4177.441406	-41.250412
4220.507813	-40.435196
4263.574219	-41.240295
4306.640625	-41.376099
4349.707031	-40.608810
4392.773438	-40.190437
4435.839844	-40.224667
4478.906250	-41.269489
4521.972656	-41.678436
4565.039063	-42.797863
4608.105469	-44.708305
4651.171875	-46.469055
4694.238281	-46.492039
4737.304688	-46.593296
4780.371094	-46.196575
4823.437500	-44.573082
4866.503906	-41.917484
4909.570313	-41.602524
4952.636719	-44.266537
4995.703125	-46.450577
5038.769531	-46.109337
5081.835938	-45.160889
5124.902344	-44.800350
5167.968750	-45.784584
5211.035156	-46.734131
5254.101563	-45.849907
5297.167969	-47.461903
5340.234375	-45.977364
5383.300781	-45.434498
5426.367188	-48.097324
5469.433594	-48.112015
5512.500000	-46.246861
5555.566406	-44.866421
5598.632813	-47.603642
5641.699219	-45.314072
5684.765625	-43.804558
5727.832031	-45.142815
5770.898438	-45.252033
5813.964844	-41.654228
5857.031250	-39.652122
5900.097656	-43.740986
5943.164063	-42.861668
5986.230469	-41.728951
6029.296875	-43.387463
6072.363281	-43.953018
6115.429688	-45.279415
6158.496094	-48.108994
6201.562500	-46.732723
6244.628906	-43.370426
6287.695313	-44.359840
6330.761719	-46.002705
6373.828125	-43.007389
6416.894531	-42.900814
6459.960938	-44.688313
6503.027344	-43.387852
6546.093750	-43.722874
6589.160156	-42.267433
6632.226563	-43.053635
6675.292969	-44.023136
6718.359375	-46.607327
6761.425781	-47.237370
6804.492188	-46.221874
6847.558594	-47.929176
6890.625000	-49.628838
6933.691406	-46.496403
6976.757813	-45.166168
7019.824219	-44.584206
7062.890625	-44.217525
7105.957031	-45.736885
7149.023438	-47.381710
7192.089844	-47.591663
7235.156250	-46.264359
7278.222656	-45.919216
7321.289063	-46.862377
7364.355469	-46.377865
7407.421875	-45.708889
7450.488281	-44.256458
7493.554688	-44.413212
7536.621094	-44.587517
7579.687500	-44.780819
7622.753906	-45.526928
7665.820313	-46.352165
7708.886719	-46.330650
7751.953125	-46.555130
7795.019531	-46.603298
7838.085938	-45.246922
7881.152344	-44.841606
7924.218750	-43.761597
7967.285156	-42.281780
8010.351563	-43.479942
8053.417969	-45.524033
8096.484375	-45.603130
8139.550781	-45.904671
8182.617188	-45.921429
8225.683594	-45.936676
8268.750000	-46.143841
8311.816406	-45.835705
8354.882813	-45.463127
8397.949219	-45.383209
8441.015625	-45.937862
8484.082031	-47.486462
8527.148438	-47.991676
8570.214844	-48.355064
8613.281250	-49.463444
8656.347656	-49.747780
8699.414063	-49.398113
8742.480469	-49.440525
8785.546875	-49.761353
8828.613281	-49.179607
8871.679688	-48.238110
8914.746094	-48.833797
8957.812500	-49.125767
9000.878906	-50.395763
9043.945313	-51.013786
9087.011719	-49.966663
9130.078125	-49.223644
9173.144531	-48.524628
9216.210938	-47.564320
9259.277344	-49.111595
9302.343750	-50.279202
9345.410156	-50.378059
9388.476563	-50.446171
9431.542969	-49.645905
9474.609375	-49.208115
9517.675781	-49.832886
9560.742188	-50.150627
9603.808594	-50.402237
9646.875000	-49.975311
9689.941406	-49.062992
9733.007813	-49.714336
9776.074219	-50.768375
9819.140625	-50.128036
9862.207031	-50.454815
9905.273438	-50.150288
9948.339844	-50.554680
9991.406250	-52.176582
10034.472656	-51.844334
10077.539063	-51.797764
10120.605469	-51.926086
10163.671875	-52.887627
10206.738281	-55.166878
10249.804688	-54.425667
10292.871094	-52.474483
10335.937500	-52.738380
10379.003906	-53.449036
10422.070313	-54.148792
10465.136719	-53.695164
10508.203125	-53.600189
10551.269531	-52.404228
10594.335938	-52.981350
10637.402344	-53.249249
10680.468750	-54.184116
10723.535156	-53.789227
10766.601563	-53.212109
10809.667969	-53.670959
10852.734375	-54.130184
10895.800781	-53.257843
10938.867188	-53.565464
10981.933594	-56.026344
11025.000000	-56.488457
11068.066406	-54.899467
11111.132813	-54.778931
11154.199219	-55.181133
11197.265625	-53.172878
11240.332031	-53.643364
11283.398438	-54.116791
11326.464844	-54.522259
11369.531250	-53.919613
11412.597656	-54.098854
11455.664063	-55.604668
11498.730469	-56.664852
11541.796875	-55.448849
11584.863281	-55.599892
11627.929688	-55.360538
11670.996094	-55.829433
11714.062500	-56.088139
11757.128906	-55.745026
11800.195313	-54.526005
11843.261719	-53.027325
11886.328125	-53.863293
11929.394531	-54.513306
11972.460938	-55.268574
12015.527344	-53.695950
12058.593750	-52.853214
12101.660156	-53.598576
12144.726563	-55.157898
12187.792969	-57.329685
12230.859375	-57.406929
12273.925781	-56.201382
12316.992188	-56.390419
12360.058594	-56.235252
12403.125000	-57.344505
12446.191406	-57.150856
12489.257813	-55.869205
12532.324219	-56.424129
12575.390625	-58.062817
12618.457031	-54.997822
12661.523438	-56.788216
12704.589844	-57.886299
12747.656250	-55.501972
12790.722656	-54.265926
12833.789063	-54.796238
12876.855469	-56.765068
12919.921875	-58.155479
12962.988281	-59.037846
13006.054688	-59.023460
13049.121094	-59.161400
13092.187500	-58.034447
13135.253906	-58.521709
13178.320313	-56.161327
13221.386719	-55.084557
13264.453125	-57.842056
13307.519531	-58.710602
13350.585938	-57.931404
13393.652344	-55.829166
13436.718750	-55.312965
13479.785156	-59.444134
13522.851563	-57.917618
13565.917969	-55.712910
13608.984375	-57.447746
13652.050781	-58.600735
13695.117188	-59.766560
13738.183594	-61.132835
13781.250000	-59.101913
13824.316406	-58.843712
13867.382813	-60.056942
13910.449219	-59.890446
13953.515625	-59.986488
13996.582031	-59.850811
14039.648438	-62.347424
14082.714844	-60.953201
14125.781250	-59.307545
14168.847656	-58.870651
14211.914063	-59.911518
14254.980469	-60.856003
14298.046875	-60.519653
14341.113281	-60.512493
14384.179688	-60.525024
14427.246094	-60.404530
14470.312500	-61.847427
14513.378906	-61.981064
14556.445313	-60.909317
14599.511719	-62.799011
14642.578125	-61.457653
14685.644531	-61.578297
14728.710938	-62.994926
14771.777344	-63.118256
14814.843750	-61.878117
14857.910156	-62.616829
14900.976563	-61.241215
14944.042969	-61.110775
14987.109375	-65.184372
15030.175781	-75.188057
15073.242188	-82.856956
15116.308594	-86.078995
15159.375000	-86.936035
15202.441406	-89.058426
15245.507813	-92.220367
15288.574219	-93.969337
15331.640625	-95.239891
15374.707031	-96.896072
15417.773438	-99.131821
15460.839844	-102.158859
15503.906250	-101.868607
15546.972656	-99.713921
15590.039063	-99.847725
15633.105469	-99.959343
15676.171875	-99.505753
15719.238281	-98.826797
15762.304688	-98.891144
15805.371094	-99.883904
15848.437500	-101.178528
15891.503906	-101.793037
15934.570313	-102.461716
15977.636719	-103.804337
16020.703125	-105.035736
16063.769531	-105.668976
16106.835938	-105.963524
16149.902344	-107.171043
16192.968750	-108.580940
16236.035156	-108.699242
16279.101563	-108.430550
16322.167969	-109.942787
16365.234375	-111.483620
16408.300781	-111.862709
16451.367188	-111.646019
16494.433594	-113.037460
16537.500000	-114.971138
16580.566406	-116.248207
16623.632813	-115.987831
16666.699219	-116.605705
16709.765625	-117.252541
16752.832031	-116.577446
16795.898438	-115.988724
16838.964844	-117.339081
16882.031250	-118.638130
16925.097656	-117.996140
16968.164063	-117.116066
17011.230469	-117.272034
17054.296875	-117.742043
17097.363281	-116.970718
17140.429688	-116.254967
17183.496094	-117.206856
17226.562500	-118.484894
17269.628906	-118.008080
17312.695313	-117.530251
17355.761719	-117.461029
17398.828125	-118.072052
17441.894531	-117.629898
17484.960938	-116.918274
17528.027344	-117.445114
17571.093750	-118.499275
17614.160156	-118.435112
17657.226563	-117.812988
17700.292969	-118.037453
17743.359375	-118.398682
17786.425781	-117.565613
17829.492188	-116.892136
17872.558594	-117.506363
17915.625000	-118.361282
17958.691406	-118.836433
18001.757813	-118.195656
18044.824219	-118.190575
18087.890625	-117.769241
18130.957031	-117.589165
18174.023438	-117.624817
18217.089844	-117.879608
18260.156250	-118.334229
18303.222656	-118.568901
18346.289063	-118.115059
18389.355469	-118.047791
18432.421875	-118.546646
18475.488281	-118.047997
18518.554688	-117.776230
18561.621094	-118.358574
18604.687500	-118.982521
18647.753906	-118.637672
18690.820313	-118.371811
18733.886719	-118.767342
18776.953125	-118.887741
18820.019531	-118.276665
18863.085938	-118.029846
18906.152344	-118.257263
18949.218750	-118.546867
18992.285156	-118.144112
19035.351563	-117.834900
19078.417969	-118.396782
19121.484375	-118.532928
19164.550781	-118.197823
19207.617188	-118.022270
19250.683594	-118.290871
19293.750000	-118.723396
19336.816406	-118.826775
19379.882813	-118.016487
19422.949219	-117.976074
19466.015625	-118.806786
19509.082031	-118.547546
19552.148438	-118.222557
19595.214844	-118.354683
19638.281250	-118.556572
19681.347656	-118.571220
19724.414063	-118.613945
19767.480469	-118.879356
19810.546875	-118.925552
19853.613281	-118.309074
19896.679688	-118.316162
19939.746094	-119.052628
19982.812500	-119.037483
20025.878906	-118.985008
20068.945313	-119.075081
20112.011719	-119.065117
20155.078125	-118.544830
20198.144531	-118.377991
20241.210938	-117.921371
20284.277344	-118.312431
20327.343750	-118.762207
20370.410156	-119.027199
20413.476563	-118.588203
20456.542969	-118.441231
20499.609375	-118.635712
20542.675781	-118.545677
20585.742188	-118.235985
20628.808594	-118.540390
20671.875000	-118.721077
20714.941406	-118.776680
20758.007813	-118.352066
20801.074219	-118.329468
20844.140625	-118.960022
20887.207031	-119.202850
20930.273438	-118.952850
20973.339844	-118.444115
21016.406250	-118.911430
21059.472656	-118.871277
21102.539063	-118.512527
21145.605469	-118.851051
21188.671875	-118.871422
21231.738281	-118.410118
21274.804688	-118.223557
21317.871094	-118.083473
21360.937500	-118.642654
21404.003906	-118.688942
21447.070313	-118.267883
21490.136719	-118.301544
21533.203125	-118.830597
21576.269531	-118.841309
21619.335938	-118.508286
21662.402344	-118.394707
21705.468750	-119.211090
21748.535156	-118.671089
21791.601563	-118.777206
21834.667969	-118.900856
21877.734375	-118.692230
21920.800781	-118.673744
21963.867188	-118.584305
22006.933594	-118.420403
