주파수 (Hz)	레벨 (dB)
43.066406	-33.926849
86.132813	-39.777885
129.199219	-31.117033
172.265625	-22.100590
215.332031	-16.297373
258.398438	-12.775410
301.464844	-14.240045
344.531250	-20.549469
387.597656	-26.557652
430.664063	-24.492182
473.730469	-22.156225
516.796875	-23.534679
559.863281	-24.684828
602.929688	-23.286543
645.996094	-23.747717
689.062500	-27.984634
732.128906	-29.612574
775.195313	-26.370173
818.261719	-25.932177
861.328125	-27.866396
904.394531	-29.124781
947.460938	-29.336210
990.527344	-28.072235
1033.593750	-29.912975
1076.660156	-33.925983
1119.726563	-35.558456
1162.792969	-33.578327
1205.859375	-34.389301
1248.925781	-34.895302
1291.992188	-35.640491
1335.058594	-37.795185
1378.125000	-38.614914
1421.191406	-39.586292
1464.257813	-39.346779
1507.324219	-40.538345
1550.390625	-40.121643
1593.457031	-37.503418
1636.523438	-38.335835
1679.589844	-41.076916
1722.656250	-42.287727
1765.722656	-39.302834
1808.789063	-37.062202
1851.855469	-37.802422
1894.921875	-38.943302
1937.988281	-38.743019
1981.054688	-34.857098
2024.121094	-33.713711
2067.187500	-35.720955
2110.253906	-36.967964
2153.320313	-36.331139
2196.386719	-37.333546
2239.453125	-37.770458
2282.519531	-37.618385
2325.585938	-38.244816
2368.652344	-37.813145
2411.718750	-38.499271
2454.785156	-41.325317
2497.851563	-42.006390
2540.917969	-40.301884
2583.984375	-37.895809
2627.050781	-37.658573
2670.117188	-39.826374
2713.183594	-42.894512
2756.250000	-42.993141
2799.316406	-41.861889
2842.382813	-41.483059
2885.449219	-43.498337
2928.515625	-43.618481
2971.582031	-41.399044
3014.648438	-40.926514
3057.714844	-41.519150
3100.781250	-41.534531
3143.847656	-40.587749
3186.914063	-39.995899
3229.980469	-41.540154
3273.046875	-43.485153
3316.113281	-44.151066
3359.179688	-45.184711
3402.246094	-47.014030
3445.312500	-48.409000
3488.378906	-49.016834
3531.445313	-49.021221
3574.511719	-49.030243
3617.578125	-48.495106
3660.644531	-48.962696
3703.710938	-48.091949
3746.777344	-47.215488
3789.843750	-46.485790
3832.910156	-47.132786
3875.976563	-48.897018
3919.042969	-50.834023
3962.109375	-49.191578
4005.175781	-47.834793
4048.242188	-46.663620
4091.308594	-45.578266
4134.375000	-43.490932
4177.441406	-41.340645
4220.507813	-39.340706
4263.574219	-40.174767
4306.640625	-39.806084
4349.707031	-41.298550
4392.773438	-43.489925
4435.839844	-46.177837
4478.906250	-47.991474
4521.972656	-48.112907
4565.039063	-48.119522
4608.105469	-48.727119
4651.171875	-48.127644
4694.238281	-47.725941
4737.304688	-48.918583
4780.371094	-49.619812
4823.437500	-50.123756
4866.503906	-50.150059
4909.570313	-48.716835
4952.636719	-48.567890
4995.703125	-49.935371
5038.769531	-50.457108
5081.835938	-49.297386
5124.902344	-49.275078
5167.968750	-50.710014
5211.035156	-51.832050
5254.101563	-51.525093
5297.167969	-51.453796
5340.234375	-51.680714
5383.300781	-50.920006
5426.367188	-51.791565
5469.433594	-52.667984
5512.500000	-53.594963
5555.566406	-54.744915
5598.632813	-54.123390
5641.699219	-51.474163
5684.765625	-49.520866
5727.832031	-49.736904
5770.898438	-48.562370
5813.964844	-48.323341
5857.031250	-49.022911
5900.097656	-48.638321
5943.164063	-48.985432
5986.230469	-49.550938
6029.296875	-50.324894
6072.363281	-50.166138
6115.429688	-49.194695
6158.496094	-49.077553
6201.562500	-48.623734
6244.628906	-47.387482
6287.695313	-46.579639
6330.761719	-45.707428
6373.828125	-42.115803
6416.894531	-44.111279
6459.960938	-46.273846
6503.027344	-45.244888
6546.093750	-45.510990
6589.160156	-46.161636
6632.226563	-47.893234
6675.292969	-46.305172
6718.359375	-46.486389
6761.425781	-48.760590
6804.492188	-49.022961
6847.558594	-48.381584
6890.625000	-49.146057
6933.691406	-49.885487
6976.757813	-49.926083
7019.824219	-47.281780
7062.890625	-46.525524
7105.957031	-46.369656
7149.023438	-46.548866
7192.089844	-47.730003
7235.156250	-47.772167
7278.222656	-46.825058
7321.289063	-46.827286
7364.355469	-45.911140
7407.421875	-45.531273
7450.488281	-44.884796
7493.554688	-44.176704
7536.621094	-46.275276
7579.687500	-45.191002
7622.753906	-44.959743
7665.820313	-45.242764
7708.886719	-44.641171
7751.953125	-44.497864
7795.019531	-43.835735
7838.085938	-44.523724
7881.152344	-45.628017
7924.218750	-45.375443
7967.285156	-45.523640
8010.351563	-45.920525
8053.417969	-45.164425
8096.484375	-44.254978
8139.550781	-42.350807
8182.617188	-41.787674
8225.683594	-42.819447
8268.750000	-42.986591
8311.816406	-42.685966
8354.882813	-41.343468
8397.949219	-41.268990
8441.015625	-41.804264
8484.082031	-41.460312
8527.148438	-41.946163
8570.214844	-43.627640
8613.281250	-44.507839
8656.347656	-44.732975
8699.414063	-46.096825
8742.480469	-44.941833
8785.546875	-44.158382
8828.613281	-44.759289
8871.679688	-44.628902
8914.746094	-46.224968
8957.812500	-45.886520
9000.878906	-43.035851
9043.945313	-41.531654
9087.011719	-42.134094
9130.078125	-44.768482
9173.144531	-43.831249
9216.210938	-41.567608
9259.277344	-40.271496
9302.343750	-39.826176
9345.410156	-41.237823
9388.476563	-42.856106
9431.542969	-45.105114
9474.609375	-46.880123
9517.675781	-46.774380
9560.742188	-46.450443
9603.808594	-47.499809
9646.875000	-45.280659
9689.941406	-44.386703
9733.007813	-45.532726
9776.074219	-46.346920
9819.140625	-45.618500
9862.207031	-44.892818
9905.273438	-44.185543
9948.339844	-44.740398
9991.406250	-43.623409
10034.472656	-42.025936
10077.539063	-42.479107
10120.605469	-46.305862
10163.671875	-47.017250
10206.738281	-46.759258
10249.804688	-48.189697
10292.871094	-45.039989
10335.937500	-47.362347
10379.003906	-51.008804
10422.070313	-50.358131
10465.136719	-49.906807
10508.203125	-47.716389
10551.269531	-47.831802
10594.335938	-48.160187
10637.402344	-47.998730
10680.468750	-49.232361
10723.535156	-49.898941
10766.601563	-47.804676
10809.667969	-47.464779
10852.734375	-48.106155
10895.800781	-48.465878
10938.867188	-49.445232
10981.933594	-49.469574
11025.000000	-49.870415
11068.066406	-51.856689
11111.132813	-48.757641
11154.199219	-47.697506
11197.265625	-50.300449
11240.332031	-49.487125
11283.398438	-50.778389
11326.464844	-52.839912
11369.531250	-51.901844
11412.597656	-50.985634
11455.664063	-48.297249
11498.730469	-48.940552
11541.796875	-51.416416
11584.863281	-52.946266
11627.929688	-52.215069
11670.996094	-53.035458
11714.062500	-52.520973
11757.128906	-53.054363
11800.195313	-53.457027
11843.261719	-52.971394
11886.328125	-52.243820
11929.394531	-51.800976
11972.460938	-50.945141
12015.527344	-51.063496
12058.593750	-53.528648
12101.660156	-54.126492
12144.726563	-53.715996
12187.792969	-54.370426
12230.859375	-53.548023
12273.925781	-52.945454
12316.992188	-52.248779
12360.058594	-50.434708
12403.125000	-52.543655
12446.191406	-54.080208
12489.257813	-54.324608
12532.324219	-53.789112
12575.390625	-54.510849
12618.457031	-54.661743
12661.523438	-54.989052
12704.589844	-55.611942
12747.656250	-54.948776
12790.722656	-54.942348
12833.789063	-53.625278
12876.855469	-53.429314
12919.921875	-55.829521
12962.988281	-55.369484
13006.054688	-54.228638
13049.121094	-53.556309
13092.187500	-53.578358
13135.253906	-54.083107
13178.320313	-54.520420
13221.386719	-54.790169
13264.453125	-55.439743
13307.519531	-55.966412
13350.585938	-56.987980
13393.652344	-57.779209
13436.718750	-57.042454
13479.785156	-56.799778
13522.851563	-56.315224
13565.917969	-56.548817
13608.984375	-57.432911
13652.050781	-58.320789
13695.117188	-58.227833
13738.183594	-57.724545
13781.250000	-56.500351
13824.316406	-56.727737
13867.382813	-56.199524
13910.449219	-57.708168
13953.515625	-58.922699
13996.582031	-59.301655
14039.648438	-58.089371
14082.714844	-58.017918
14125.781250	-60.156109
14168.847656	-59.253387
14211.914063	-57.960377
14254.980469	-57.883621
14298.046875	-58.191967
14341.113281	-59.388340
14384.179688	-58.827126
14427.246094	-59.278053
14470.312500	-61.852707
14513.378906	-61.135170
14556.445313	-61.293068
14599.511719	-62.116493
14642.578125	-61.497627
14685.644531	-59.803314
14728.710938	-59.444706
14771.777344	-60.711575
14814.843750	-61.412441
14857.910156	-61.610767
14900.976563	-63.037895
14944.042969	-65.078804
14987.109375	-66.365318
15030.175781	-72.578789
15073.242188	-79.188377
15116.308594	-81.564682
15159.375000	-83.902565
15202.441406	-87.145714
15245.507813	-89.014351
15288.574219	-90.588593
15331.640625	-92.723320
15374.707031	-93.851776
15417.773438	-92.961639
15460.839844	-91.692474
15503.906250	-90.370209
15546.972656	-89.399231
15590.039063	-89.317924
15633.105469	-90.113121
15676.171875	-91.183403
15719.238281	-92.000511
15762.304688	-92.823563
15805.371094	-93.925789
15848.437500	-94.393051
15891.503906	-94.114212
15934.570313	-93.956306
15977.636719	-94.523491
16020.703125	-95.439400
16063.769531	-96.444771
16106.835938	-98.134003
16149.902344	-100.367584
16192.968750	-102.244217
16236.035156	-102.475929
16279.101563	-101.947716
16322.167969	-101.159782
16365.234375	-99.654442
16408.300781	-98.582336
16451.367188	-98.681786
16494.433594	-99.624298
16537.500000	-101.023415
16580.566406	-103.384338
16623.632813	-107.075012
16666.699219	-111.240906
16709.765625	-114.284683
16752.832031	-114.114922
16795.898438	-113.455788
16838.964844	-114.948608
16882.031250	-117.212494
16925.097656	-116.272942
16968.164063	-114.789894
17011.230469	-114.904091
17054.296875	-116.012520
17097.363281	-115.668434
17140.429688	-115.335846
17183.496094	-116.383713
17226.562500	-117.257805
17269.628906	-116.316322
17312.695313	-115.384148
17355.761719	-115.989548
17398.828125	-116.638481
17441.894531	-116.154266
17484.960938	-116.099533
17528.027344	-117.596420
17571.093750	-117.759964
17614.160156	-117.025093
17657.226563	-115.831856
17700.292969	-116.254768
17743.359375	-117.178787
17786.425781	-116.683388
17829.492188	-116.334618
17872.558594	-117.428329
17915.625000	-118.038696
17958.691406	-117.115509
18001.757813	-116.215378
18044.824219	-116.361427
18087.890625	-117.466873
18130.957031	-117.254890
18174.023438	-116.986443
18217.089844	-117.878105
18260.156250	-118.157532
18303.222656	-117.307014
18346.289063	-116.500443
18389.355469	-116.894302
18432.421875	-117.482872
18475.488281	-117.066101
18518.554688	-116.929298
18561.621094	-117.591789
18604.687500	-117.933823
18647.753906	-117.408829
18690.820313	-116.683662
18733.886719	-117.373161
18776.953125	-117.894882
18820.019531	-117.661957
18863.085938	-117.520485
18906.152344	-117.854073
18949.218750	-118.081451
18992.285156	-118.083817
19035.351563	-117.591507
19078.417969	-117.462349
19121.484375	-117.673157
19164.550781	-117.886002
19207.617188	-117.765976
19250.683594	-118.575226
19293.750000	-118.621300
19336.816406	-117.972511
19379.882813	-117.105431
19422.949219	-117.263596
19466.015625	-117.894379
19509.082031	-118.179550
19552.148438	-118.034241
19595.214844	-118.212570
19638.281250	-118.718956
19681.347656	-118.468231
19724.414063	-117.927277
19767.480469	-117.718010
19810.546875	-117.980438
19853.613281	-118.095062
19896.679688	-117.634697
19939.746094	-117.965874
19982.812500	-118.265633
20025.878906	-118.284637
20068.945313	-117.903984
20112.011719	-118.211288
20155.078125	-118.545525
20198.144531	-117.745087
20241.210938	-117.455078
20284.277344	-118.180130
20327.343750	-118.629326
20370.410156	-118.422180
20413.476563	-118.077438
20456.542969	-118.350754
20499.609375	-118.360336
20542.675781	-118.222656
20585.742188	-117.928108
20628.808594	-118.274864
20671.875000	-118.704353
20714.941406	-118.291122
20758.007813	-118.184906
20801.074219	-118.350471
20844.140625	-118.337479
20887.207031	-118.198769
20930.273438	-117.966095
20973.339844	-118.455666
21016.406250	-118.703583
21059.472656	-118.243301
21102.539063	-117.916229
21145.605469	-118.002609
21188.671875	-118.137413
21231.738281	-118.457626
21274.804688	-118.272400
21317.871094	-117.993637
21360.937500	-118.404526
21404.003906	-118.276871
21447.070313	-118.245407
21490.136719	-118.310738
21533.203125	-118.314560
21576.269531	-117.865158
21619.335938	-117.807999
21662.402344	-118.262581
21705.468750	-118.722679
21748.535156	-118.579262
21791.601563	-118.551186
21834.667969	-118.303146
21877.734375	-118.335274
21920.800781	-118.268425
21963.867188	-118.316536
22006.933594	-118.512848
