주파수 (Hz)	레벨 (dB)
43.066406	-27.305353
86.132813	-26.680557
129.199219	-28.110878
172.265625	-24.073431
215.332031	-14.715091
258.398438	-11.875748
301.464844	-14.721168
344.531250	-20.514189
387.597656	-24.328161
430.664063	-19.802029
473.730469	-20.704321
516.796875	-26.378920
559.863281	-30.224157
602.929688	-28.022257
645.996094	-26.773716
689.062500	-28.955215
732.128906	-31.730555
775.195313	-32.216225
818.261719	-30.786001
861.328125	-27.707056
904.394531	-26.846361
947.460938	-30.475014
990.527344	-35.090717
1033.593750	-35.106930
1076.660156	-31.655621
1119.726563	-30.897070
1162.792969	-33.300545
1205.859375	-35.341652
1248.925781	-38.779312
1291.992188	-37.256062
1335.058594	-34.780117
1378.125000	-37.270405
1421.191406	-39.498028
1464.257813	-38.255287
1507.324219	-37.198936
1550.390625	-35.948357
1593.457031	-38.497162
1636.523438	-41.024174
1679.589844	-38.817417
1722.656250	-36.763721
1765.722656	-36.469555
1808.789063	-38.836540
1851.855469	-39.267895
1894.921875	-38.034107
1937.988281	-37.460514
1981.054688	-35.897423
2024.121094	-37.405334
2067.187500	-40.357376
2110.253906	-42.284634
2153.320313	-42.436901
2196.386719	-40.878139
2239.453125	-42.301197
2282.519531	-41.533203
2325.585938	-40.132271
2368.652344	-40.805805
2411.718750	-41.014252
2454.785156	-42.379879
2497.851563	-43.055935
2540.917969	-41.885796
2583.984375	-39.804623
2627.050781	-40.042542
2670.117188	-40.062527
2713.183594	-40.477383
2756.250000	-42.609737
2799.316406	-42.093288
2842.382813	-41.282925
2885.449219	-40.835464
2928.515625	-41.780312
2971.582031	-42.408829
3014.648438	-43.179028
3057.714844	-42.531986
3100.781250	-41.572006
3143.847656	-41.474182
3186.914063	-42.372269
3229.980469	-42.569874
3273.046875	-43.041542
3316.113281	-43.210236
3359.179688	-43.207058
3402.246094	-43.926098
3445.312500	-44.923149
3488.378906	-44.300449
3531.445313	-42.090172
3574.511719	-41.635479
3617.578125	-42.243683
3660.644531	-42.538490
3703.710938	-40.173241
3746.777344	-38.184998
3789.843750	-38.089062
3832.910156	-38.265266
3875.976563	-39.939899
3919.042969	-40.707672
3962.109375	-40.487778
4005.175781	-41.399044
4048.242188	-39.921623
4091.308594	-37.701141
4134.375000	-36.669899
4177.441406	-37.816288
4220.507813	-38.245644
4263.574219	-39.561581
4306.640625	-40.156788
4349.707031	-39.149826
4392.773438	-40.452579
4435.839844	-41.891678
4478.906250	-43.001816
4521.972656	-44.073479
4565.039063	-41.106396
4608.105469	-40.859154
4651.171875	-40.294449
4694.238281	-39.838234
4737.304688	-40.422447
4780.371094	-41.449066
4823.437500	-40.889343
4866.503906	-40.812836
4909.570313	-38.432331
4952.636719	-37.942303
4995.703125	-38.606529
5038.769531	-41.013870
5081.835938	-42.513470
5124.902344	-43.592182
5167.968750	-45.246643
5211.035156	-42.938774
5254.101563	-42.737637
5297.167969	-40.805603
5340.234375	-39.839905
5383.300781	-39.621910
5426.367188	-40.122829
5469.433594	-41.603207
5512.500000	-42.322506
5555.566406	-42.915531
5598.632813	-43.564323
5641.699219	-41.170834
5684.765625	-39.486202
5727.832031	-40.408459
5770.898438	-39.844498
5813.964844	-39.467636
5857.031250	-40.069012
5900.097656	-39.910168
5943.164063	-41.133106
5986.230469	-40.921902
6029.296875	-38.484840
6072.363281	-38.164623
6115.429688	-39.589203
6158.496094	-41.462948
6201.562500	-41.783230
6244.628906	-40.283077
6287.695313	-39.551258
6330.761719	-39.006039
6373.828125	-36.698196
6416.894531	-35.891487
6459.960938	-36.669872
6503.027344	-36.135147
6546.093750	-37.374081
6589.160156	-37.825310
6632.226563	-37.471821
6675.292969	-38.498524
6718.359375	-39.903492
6761.425781	-41.745968
6804.492188	-43.189510
6847.558594	-43.148594
6890.625000	-41.402180
6933.691406	-38.773693
6976.757813	-40.543568
7019.824219	-40.579544
7062.890625	-37.911430
7105.957031	-38.874821
7149.023438	-39.599888
7192.089844	-39.455971
7235.156250	-40.199368
7278.222656	-38.916901
7321.289063	-38.732319
7364.355469	-38.433704
7407.421875	-37.692337
7450.488281	-38.122902
7493.554688	-38.889557
7536.621094	-38.227928
7579.687500	-37.779591
7622.753906	-37.589207
7665.820313	-38.506073
7708.886719	-39.900795
7751.953125	-39.379230
7795.019531	-38.720646
7838.085938	-37.585331
7881.152344	-38.654377
7924.218750	-37.965977
7967.285156	-37.619015
8010.351563	-37.846283
8053.417969	-37.639591
8096.484375	-37.772640
8139.550781	-36.305397
8182.617188	-38.258629
8225.683594	-38.655930
8268.750000	-40.642021
8311.816406	-41.383961
8354.882813	-40.887760
8397.949219	-39.687428
8441.015625	-39.669991
8484.082031	-39.429176
8527.148438	-39.563377
8570.214844	-39.699593
8613.281250	-37.520054
8656.347656	-38.161446
8699.414063	-40.177227
8742.480469	-39.429531
8785.546875	-40.340488
8828.613281	-40.477043
8871.679688	-39.589935
8914.746094	-39.261341
8957.812500	-39.337948
9000.878906	-39.660664
9043.945313	-42.262047
9087.011719	-40.314163
9130.078125	-39.296227
9173.144531	-40.588612
9216.210938	-39.944496
9259.277344	-38.014664
9302.343750	-38.568584
9345.410156	-40.127151
9388.476563	-42.848904
9431.542969	-45.194527
9474.609375	-43.749287
9517.675781	-44.459915
9560.742188	-44.182968
9603.808594	-43.913597
9646.875000	-43.797634
9689.941406	-42.417061
9733.007813	-41.804169
9776.074219	-41.115238
9819.140625	-41.916546
9862.207031	-41.245766
9905.273438	-42.341911
9948.339844	-42.381348
9991.406250	-42.804615
10034.472656	-43.956238
10077.539063	-45.024586
10120.605469	-45.804249
10163.671875	-45.768383
10206.738281	-45.843861
10249.804688	-47.752438
10292.871094	-47.229527
10335.937500	-45.371090
10379.003906	-46.415337
10422.070313	-45.597946
10465.136719	-46.005531
10508.203125	-46.747639
10551.269531	-45.792095
10594.335938	-45.849052
10637.402344	-46.163803
10680.468750	-44.947117
10723.535156	-42.646343
10766.601563	-42.730103
10809.667969	-45.034466
10852.734375	-46.148319
10895.800781	-45.079342
10938.867188	-46.468193
10981.933594	-48.888298
11025.000000	-48.125790
11068.066406	-46.671566
11111.132813	-47.589920
11154.199219	-47.932976
11197.265625	-46.938839
11240.332031	-46.716778
11283.398438	-47.546326
11326.464844	-47.818901
11369.531250	-47.072712
11412.597656	-46.170822
11455.664063	-45.860943
11498.730469	-45.819294
11541.796875	-46.401928
11584.863281	-47.387272
11627.929688	-47.566929
11670.996094	-48.146336
11714.062500	-47.702675
11757.128906	-47.856632
11800.195313	-46.980453
11843.261719	-46.616615
11886.328125	-46.416756
11929.394531	-47.407658
11972.460938	-49.223660
12015.527344	-47.608734
12058.593750	-48.307972
12101.660156	-49.740322
12144.726563	-49.937656
12187.792969	-50.487099
12230.859375	-49.392326
12273.925781	-47.883209
12316.992188	-49.692268
12360.058594	-52.008801
12403.125000	-51.845779
12446.191406	-52.544106
12489.257813	-51.239811
12532.324219	-52.281681
12575.390625	-55.181175
12618.457031	-52.698658
12661.523438	-50.917881
12704.589844	-51.904984
12747.656250	-51.333412
12790.722656	-50.933723
12833.789063	-51.299984
12876.855469	-52.503742
12919.921875	-55.695473
12962.988281	-54.442627
13006.054688	-53.901054
13049.121094	-53.116238
13092.187500	-53.328297
13135.253906	-55.140419
13178.320313	-51.047085
13221.386719	-50.447025
13264.453125	-50.996922
13307.519531	-51.463676
13350.585938	-52.537579
13393.652344	-55.025455
13436.718750	-54.181950
13479.785156	-55.025589
13522.851563	-57.003799
13565.917969	-56.362827
13608.984375	-55.485100
13652.050781	-56.172337
13695.117188	-56.439487
13738.183594	-56.112396
13781.250000	-56.437588
13824.316406	-59.283661
13867.382813	-59.515034
13910.449219	-57.613419
13953.515625	-55.173378
13996.582031	-56.707851
14039.648438	-58.126080
14082.714844	-59.319237
14125.781250	-61.139301
14168.847656	-57.663246
14211.914063	-55.366535
14254.980469	-59.589119
14298.046875	-59.853062
14341.113281	-59.236069
14384.179688	-62.225563
14427.246094	-64.508224
14470.312500	-65.773071
14513.378906	-65.890762
14556.445313	-65.376694
14599.511719	-65.076302
14642.578125	-65.267929
14685.644531	-64.705711
14728.710938	-66.506683
14771.777344	-62.701164
14814.843750	-56.013699
14857.910156	-56.536213
14900.976563	-61.777599
14944.042969	-63.939102
14987.109375	-62.458836
15030.175781	-68.252449
15073.242188	-74.787079
15116.308594	-75.956429
15159.375000	-81.728729
15202.441406	-91.180176
15245.507813	-100.541260
15288.574219	-104.485626
15331.640625	-107.308098
15374.707031	-108.544067
15417.773438	-108.587357
15460.839844	-109.138031
15503.906250	-110.940651
15546.972656	-112.226357
15590.039063	-112.971619
15633.105469	-113.877022
15676.171875	-114.539200
15719.238281	-113.854294
15762.304688	-113.138039
15805.371094	-113.946220
15848.437500	-115.534012
15891.503906	-115.799477
15934.570313	-115.550560
15977.636719	-115.969719
16020.703125	-116.080887
16063.769531	-115.527534
16106.835938	-114.699905
16149.902344	-115.230904
16192.968750	-116.754707
16236.035156	-117.326851
16279.101563	-117.096779
16322.167969	-117.528664
16365.234375	-117.225746
16408.300781	-115.967690
16451.367188	-115.837624
16494.433594	-116.533897
16537.500000	-117.710564
16580.566406	-117.635689
16623.632813	-117.428154
16666.699219	-117.715302
16709.765625	-117.899506
16752.832031	-117.319008
16795.898438	-116.660782
16838.964844	-117.428078
16882.031250	-118.479996
16925.097656	-118.358727
16968.164063	-118.054733
17011.230469	-118.391953
17054.296875	-118.480560
17097.363281	-117.577492
17140.429688	-117.300804
17183.496094	-118.053513
17226.562500	-118.695618
17269.628906	-118.874649
17312.695313	-118.765289
17355.761719	-118.915909
17398.828125	-118.726021
17441.894531	-117.677124
17484.960938	-117.540344
17528.027344	-118.364250
17571.093750	-119.056755
17614.160156	-119.244911
17657.226563	-119.204315
17700.292969	-119.449379
17743.359375	-119.213104
17786.425781	-118.333473
17829.492188	-117.987289
17872.558594	-118.845451
17915.625000	-119.627167
17958.691406	-119.282074
18001.757813	-118.813950
18044.824219	-119.181915
18087.890625	-119.040779
18130.957031	-118.801414
18174.023438	-118.984222
18217.089844	-119.349159
18260.156250	-119.725044
18303.222656	-119.633766
18346.289063	-119.706047
18389.355469	-120.123039
18432.421875	-119.903999
18475.488281	-119.562813
18518.554688	-119.124855
18561.621094	-119.233086
18604.687500	-119.264000
18647.753906	-119.424881
18690.820313	-119.589012
18733.886719	-119.704109
18776.953125	-119.785774
18820.019531	-119.084259
18863.085938	-118.969383
18906.152344	-119.677650
18949.218750	-119.768738
18992.285156	-119.755737
19035.351563	-119.307396
19078.417969	-119.719200
19121.484375	-119.731308
19164.550781	-119.793602
19207.617188	-119.254028
19250.683594	-119.386742
19293.750000	-119.625114
19336.816406	-119.638748
19379.882813	-119.828720
19422.949219	-119.549667
19466.015625	-119.764397
19509.082031	-119.652000
19552.148438	-119.489128
19595.214844	-119.905098
19638.281250	-120.022026
19681.347656	-120.201584
19724.414063	-119.999588
19767.480469	-120.118729
19810.546875	-120.189178
19853.613281	-119.907501
19896.679688	-119.778687
19939.746094	-119.949600
19982.812500	-120.238113
20025.878906	-119.960785
20068.945313	-119.830482
20112.011719	-119.922043
20155.078125	-120.070152
20198.144531	-120.042526
20241.210938	-119.917648
20284.277344	-119.937370
20327.343750	-119.659935
20370.410156	-119.946075
20413.476563	-120.073982
20456.542969	-120.290627
20499.609375	-120.191551
20542.675781	-119.878929
20585.742188	-120.017059
20628.808594	-120.091644
20671.875000	-120.292786
20714.941406	-120.247917
20758.007813	-120.161644
20801.074219	-120.196426
20844.140625	-120.312889
20887.207031	-119.825691
20930.273438	-120.053268
20973.339844	-120.390015
21016.406250	-120.387482
21059.472656	-120.016762
21102.539063	-119.808815
21145.605469	-120.168419
21188.671875	-120.215096
21231.738281	-120.043564
21274.804688	-119.754761
21317.871094	-119.946053
21360.937500	-120.391205
21404.003906	-120.641403
21447.070313	-120.361557
21490.136719	-120.146187
21533.203125	-120.413414
21576.269531	-120.068527
21619.335938	-119.855247
21662.402344	-119.984146
21705.468750	-120.548126
21748.535156	-120.296181
21791.601563	-120.055374
21834.667969	-120.257378
21877.734375	-120.462784
21920.800781	-120.210449
21963.867188	-120.132217
22006.933594	-120.461998
